timestamps,TP9,AF7,AF8,TP10,Right AUX,Marker0
1578177451.359,21.973,-5.371,33.203,75.195,49.805,0
1578177451.363,28.320,-13.672,16.113,82.031,55.176,0
1578177451.367,31.250,-5.371,11.230,88.379,16.602,0
1578177451.371,33.203,4.883,30.762,85.449,-29.785,0
1578177451.375,40.039,2.930,41.504,89.355,30.273,0
1578177451.379,22.949,-0.488,10.742,85.449,61.523,0
1578177451.383,20.508,-7.324,-2.441,69.824,55.664,0
1578177451.386,26.855,-8.301,31.250,65.430,35.645,0
1578177451.390,9.766,-2.441,30.273,60.059,31.250,0
1578177451.394,8.789,-5.859,7.324,62.500,36.133,0
1578177451.398,18.555,-1.953,5.859,77.637,19.043,0
1578177451.402,10.742,-1.465,20.996,79.102,-14.648,0
1578177451.419,10.742,-10.254,38.574,69.824,6.836,0
1578177451.423,20.508,-11.719,38.574,69.336,34.180,0
1578177451.427,20.020,0.000,27.832,74.219,-9.277,0
1578177451.431,20.020,8.789,30.273,77.637,8.301,0
1578177451.435,35.645,-0.488,40.527,80.566,26.367,0
1578177451.439,26.367,-14.160,33.203,75.195,21.484,0
1578177451.443,8.789,-27.344,23.438,66.406,78.125,0
1578177451.446,12.695,-27.344,21.484,68.359,54.199,0
1578177451.450,5.371,-5.859,19.043,66.895,-5.371,0
1578177451.454,0.488,4.883,9.766,56.641,41.504,0
1578177451.458,0.977,4.883,20.020,56.152,100.586,0
1578177451.462,-0.488,12.207,21.973,56.641,56.641,0
1578177451.464,6.836,17.090,14.160,53.223,-10.254,0
1578177451.468,16.113,13.672,35.645,61.035,43.457,0
1578177451.472,20.996,-2.930,31.738,62.012,76.172,0
1578177451.476,19.043,-14.160,7.812,58.594,4.883,0
1578177451.480,25.391,-2.441,22.461,77.148,-21.973,0
1578177451.484,18.066,10.254,38.574,75.195,-4.395,0
1578177451.488,7.812,17.090,21.973,42.969,-25.879,0
1578177451.491,6.836,14.160,12.695,39.062,-47.363,0
1578177451.495,-1.465,15.625,7.324,50.293,-59.082,0
1578177451.499,0.977,16.113,18.066,49.805,-25.391,0
1578177451.503,6.836,1.465,37.598,49.316,13.184,0
1578177451.507,13.184,-3.906,23.438,55.664,-22.461,0
1578177451.509,3.906,5.371,22.949,50.293,-8.789,0
1578177451.513,-2.441,9.766,38.086,47.852,23.438,0
1578177451.517,7.812,4.395,47.363,57.129,-49.316,0
1578177451.521,12.695,11.230,32.715,60.059,-73.730,0
1578177451.525,2.441,16.602,15.625,48.340,-43.457,0
1578177451.529,4.883,13.672,27.344,44.922,34.180,0
1578177451.533,17.090,14.160,38.086,55.176,42.480,0
1578177451.536,12.695,15.137,24.902,60.547,-35.645,0
1578177451.540,15.137,10.742,3.906,52.734,0.000,0
1578177451.544,19.043,-5.859,23.926,43.945,47.363,0
1578177451.548,10.254,-5.859,52.246,57.617,20.508,0
1578177451.552,12.695,3.906,33.203,59.082,37.109,0
1578177451.555,17.090,6.836,11.230,54.688,-31.250,0
1578177451.559,22.949,16.602,23.438,67.871,-24.414,0
1578177451.563,25.879,26.367,45.410,71.777,44.922,0
1578177451.567,11.719,20.508,32.715,61.523,26.855,0
1578177451.571,14.160,12.207,7.812,59.570,-11.719,0
1578177451.575,21.973,16.602,14.160,64.941,17.578,0
1578177451.579,9.766,23.926,36.133,60.059,28.809,0
1578177451.582,-2.441,23.926,23.438,45.410,19.043,0
1578177451.586,-3.906,16.602,6.348,38.574,134.766,0
1578177451.590,-7.812,15.625,25.391,38.574,159.668,0
1578177451.594,8.301,27.344,29.297,43.457,42.480,0
1578177451.598,19.043,27.344,36.621,41.992,85.938,0
1578177451.599,9.766,28.320,31.250,41.504,116.699,0
1578177451.603,22.949,43.945,21.484,53.711,84.473,0
1578177451.607,20.508,34.180,18.555,53.711,92.285,0
1578177451.611,16.602,22.461,34.180,51.270,73.242,0
1578177451.615,6.348,22.461,30.762,46.387,60.547,0
1578177451.619,-12.695,16.113,2.930,41.504,68.848,0
1578177451.623,-6.348,16.602,13.672,54.688,103.027,0
1578177451.626,5.859,22.949,21.484,59.082,96.191,0
1578177451.630,11.719,20.020,31.250,48.340,67.871,0
1578177451.634,6.836,24.414,34.668,51.758,26.855,0
1578177451.638,14.160,27.832,16.602,50.293,22.461,0
1578177451.642,21.973,30.273,36.133,57.129,50.293,0
1578177451.645,12.695,25.391,62.988,62.012,48.340,0
1578177451.649,3.418,11.719,50.293,58.105,97.168,0
1578177451.653,4.395,12.695,17.090,51.270,78.125,0
1578177451.657,5.859,3.906,22.461,43.457,34.180,0
1578177451.661,5.859,0.488,37.598,47.363,53.223,0
1578177451.665,10.254,11.719,14.160,48.340,76.660,0
1578177451.669,2.930,18.066,-12.695,41.504,79.102,0
1578177451.672,2.930,22.461,-7.812,37.598,65.430,0
1578177451.676,10.254,31.738,34.180,44.922,19.043,0
1578177451.680,1.953,20.508,38.574,55.664,-2.930,0
1578177451.684,1.465,20.996,26.367,68.848,32.715,0
1578177451.688,3.906,23.926,31.250,64.941,56.152,0
1578177451.689,-1.953,3.906,26.367,48.828,27.832,0
1578177451.693,1.465,0.488,25.391,49.316,39.551,0
1578177451.697,13.184,12.207,19.043,62.500,38.086,0
1578177451.701,24.902,28.809,17.090,72.754,-9.766,0
1578177451.705,18.555,20.996,24.902,61.523,-1.465,0
1578177451.709,-0.488,0.977,21.973,45.898,38.574,0
1578177451.713,1.465,8.789,-2.441,45.898,56.152,0
1578177451.716,12.207,29.785,10.254,54.199,52.246,0
1578177451.720,9.766,24.902,42.480,48.828,47.852,0
1578177451.724,18.066,20.508,31.738,47.852,28.809,0
1578177451.728,20.996,27.344,12.695,50.293,20.996,0
1578177451.732,3.906,19.043,0.000,42.480,-16.113,0
1578177451.734,2.930,32.715,17.090,50.781,-39.551,0
1578177451.738,4.883,43.945,26.367,57.129,-28.809,0
1578177451.742,13.672,31.738,23.926,65.430,53.711,0
1578177451.746,31.738,30.273,26.855,61.523,116.211,0
1578177451.750,29.785,14.648,31.250,62.988,76.660,0
1578177451.754,16.602,3.418,19.043,58.105,40.039,0
1578177451.758,0.000,14.160,5.371,41.992,44.434,0
1578177451.761,-0.488,6.836,21.973,48.828,27.344,0
1578177451.765,15.625,13.672,20.996,53.711,20.996,0
1578177451.769,14.160,27.832,20.020,59.570,38.086,0
1578177451.773,2.441,15.625,24.414,53.223,24.414,0
1578177451.777,18.066,13.184,19.531,45.410,15.137,0
1578177451.794,11.719,25.879,14.648,48.340,46.875,0
1578177451.798,3.906,20.020,13.672,51.758,39.062,0
1578177451.802,15.137,3.418,16.113,53.223,-50.781,0
1578177451.806,5.859,-0.977,24.902,52.734,-20.996,0
1578177451.810,3.906,7.324,11.230,59.082,38.574,0
1578177451.814,4.883,14.160,-12.207,54.688,-25.391,0
1578177451.818,5.371,9.766,-4.883,40.527,-77.637,0
1578177451.821,9.766,11.230,16.113,41.504,-26.855,0
1578177451.825,31.738,22.949,6.348,52.246,22.461,0
1578177451.829,38.086,16.602,-15.625,46.875,1.953,0
1578177451.833,12.695,8.789,21.973,50.293,14.160,0
1578177451.837,1.953,27.344,47.852,63.965,5.371,0
1578177451.839,-5.371,23.438,1.465,59.082,-42.969,0
1578177451.843,-0.977,12.695,-17.578,49.316,-25.879,0
1578177451.847,7.812,5.371,8.301,41.504,21.973,0
1578177451.851,14.648,10.254,28.320,62.500,-32.715,0
1578177451.855,15.625,24.902,18.555,68.359,-37.109,0
1578177451.859,-3.906,17.578,-5.859,31.738,47.363,0
1578177451.863,-1.953,4.883,4.395,25.391,55.176,0
1578177451.866,-2.441,3.906,22.461,35.645,-19.531,0
1578177451.870,-12.207,12.695,3.418,34.668,-63.965,0
1578177451.874,-4.883,19.043,-0.977,32.715,31.738,0
1578177451.878,-6.348,26.367,23.438,39.551,35.156,0
1578177451.882,-9.277,24.414,20.508,41.016,-13.672,0
1578177451.885,6.348,7.812,9.766,37.598,-28.320,0
1578177451.889,14.160,6.836,9.277,33.691,6.836,0
1578177451.893,3.906,-1.953,4.883,29.785,-8.301,0
1578177451.897,-2.930,-1.465,17.578,36.133,-52.734,0
1578177451.901,11.719,30.273,29.785,47.363,0.977,0
1578177451.905,-0.977,20.508,7.324,42.969,12.207,0
1578177451.909,-20.020,0.977,-6.348,37.598,-29.785,0
1578177451.912,-9.277,15.137,12.695,41.016,-36.621,0
1578177451.916,1.465,24.902,15.137,42.480,19.043,0
1578177451.920,6.836,24.902,16.113,46.875,7.324,0
1578177451.924,2.441,19.043,12.695,50.781,-28.809,0
1578177451.928,0.488,19.531,10.254,55.664,-2.930,0
1578177451.929,8.789,29.297,31.738,61.523,2.441,0
1578177451.933,10.742,18.555,33.203,50.293,37.109,0
1578177451.937,5.371,3.418,12.695,45.898,8.301,0
1578177451.941,16.602,14.648,14.648,51.270,5.859,0
1578177451.945,26.855,36.621,40.039,63.965,32.227,0
1578177451.949,19.531,32.715,43.457,67.871,7.324,0
1578177451.953,0.977,7.324,21.484,50.293,24.902,0
1578177451.956,-1.953,8.301,2.930,36.133,41.992,0
1578177451.960,2.930,16.113,26.855,36.621,60.547,0
1578177451.964,0.977,22.461,57.617,46.875,62.500,0
1578177451.968,4.883,22.949,32.715,48.340,55.664,0
1578177451.972,2.441,14.648,12.695,47.363,39.062,0
1578177451.974,13.672,6.836,29.297,52.734,20.996,0
1578177451.978,28.320,6.836,53.711,56.152,-5.371,0
1578177451.982,32.715,15.625,39.062,54.199,-43.457,0
1578177451.986,8.301,13.184,24.414,47.852,-4.395,0
1578177451.990,-5.371,5.371,32.715,49.805,32.227,0
1578177451.994,4.883,8.789,34.180,50.293,25.391,0
1578177451.998,-4.883,10.254,32.715,42.480,28.320,0
1578177452.001,-2.441,11.719,0.977,39.551,0.977,0
1578177452.005,14.648,14.648,0.488,36.133,-0.977,0
1578177452.009,15.625,19.043,36.621,40.527,-18.066,0
1578177452.013,4.395,17.090,27.832,39.062,-16.602,0
1578177452.017,3.418,10.254,11.230,43.945,14.648,0
1578177452.019,-7.812,11.230,14.160,47.852,13.184,0
1578177452.023,-10.254,25.879,28.320,45.410,30.273,0
1578177452.027,0.977,21.484,15.625,40.527,-12.695,0
1578177452.031,4.883,14.160,5.859,37.109,-31.738,0
1578177452.035,15.137,28.320,15.625,45.410,6.836,0
1578177452.039,7.324,21.484,6.348,41.992,55.664,0
1578177452.043,-6.836,7.324,10.254,31.250,150.879,0
1578177452.046,-3.418,16.602,17.090,31.738,204.590,0
1578177452.050,10.254,24.414,17.090,45.898,46.387,0
1578177452.054,20.020,22.461,16.602,56.152,-34.668,0
1578177452.058,19.531,22.949,30.762,58.594,39.551,0
1578177452.062,28.320,19.531,35.645,64.941,3.906,0
1578177452.064,15.137,18.066,9.277,52.246,-58.594,0
1578177452.068,-11.230,20.508,-1.465,43.945,-44.434,0
1578177452.072,4.883,32.227,31.250,56.152,43.457,0
1578177452.076,25.391,39.551,53.223,62.500,61.523,0
1578177452.080,7.324,19.531,25.879,52.734,-13.672,0
1578177452.084,-3.418,6.836,3.418,41.992,-50.293,0
1578177452.088,6.348,12.207,4.395,40.039,50.293,0
1578177452.091,9.766,16.602,25.391,41.504,81.055,0
1578177452.095,14.160,21.484,44.434,54.199,69.336,0
1578177452.099,21.484,14.160,29.297,64.453,99.121,0
1578177452.103,10.742,11.230,38.574,57.617,171.387,0
1578177452.107,-5.859,18.066,51.270,52.734,130.371,0
1578177452.109,4.395,16.602,46.387,45.410,68.848,0
1578177452.113,17.090,16.602,19.043,38.574,61.035,0
1578177452.117,11.719,20.996,19.043,51.270,52.734,0
1578177452.121,-1.953,10.742,41.016,53.223,64.453,0
1578177452.125,-12.695,2.441,31.250,47.363,5.859,0
1578177452.129,-7.812,21.973,11.230,55.176,21.484,0
1578177452.133,10.254,31.738,13.672,50.293,121.582,0
1578177452.136,13.184,17.578,48.340,50.293,89.355,0
1578177452.140,14.160,24.902,45.410,60.547,1.953,0
1578177452.144,16.113,31.738,20.508,60.547,-20.996,0
1578177452.148,19.531,33.203,18.555,54.199,-51.270,0
1578177452.152,7.324,30.762,23.926,48.340,-53.223,0
1578177452.169,-11.230,13.672,30.762,47.363,-0.977,0
1578177452.173,11.719,17.578,29.785,63.965,-41.504,0
1578177452.177,36.133,28.320,28.809,72.754,-53.711,0
1578177452.181,9.277,19.531,24.414,55.176,-23.926,0
1578177452.185,-3.418,22.949,19.043,39.062,11.230,0
1578177452.189,12.207,36.133,10.254,45.410,38.086,0
1578177452.193,20.996,20.508,7.812,50.781,2.930,0
1578177452.196,10.742,18.555,16.113,42.969,-16.113,0
1578177452.200,3.906,25.391,29.297,54.688,-42.480,0
1578177452.204,7.324,23.926,21.973,50.781,-5.859,0
1578177452.208,6.348,21.484,22.949,42.969,0.000,0
1578177452.212,11.719,8.789,26.367,48.340,9.766,2
1578177452.214,11.230,13.184,10.254,52.734,7.324,0
1578177452.218,17.578,22.949,26.855,63.477,34.180,0
1578177452.222,27.344,40.527,37.109,67.383,6.348,0
1578177452.226,13.672,37.109,23.438,59.570,-55.664,0
1578177452.230,-2.930,2.441,13.672,47.852,20.020,0
1578177452.234,-8.301,0.977,18.066,50.781,39.062,0
1578177452.238,-11.719,0.977,26.367,41.016,36.621,0
1578177452.241,-13.184,6.348,19.043,35.156,-6.836,0
1578177452.245,5.371,24.414,17.090,52.246,33.203,0
1578177452.249,6.836,20.508,27.344,41.016,138.184,0
1578177452.253,-0.488,14.160,36.621,35.645,120.605,0
1578177452.257,13.672,16.602,19.043,51.270,85.449,0
1578177452.259,21.484,16.113,5.371,55.176,55.664,0
1578177452.263,19.531,14.160,25.391,48.340,82.031,0
1578177452.267,18.066,14.160,33.691,48.340,72.266,0
1578177452.271,16.602,8.789,14.160,53.711,21.484,0
1578177452.275,12.695,0.977,19.043,58.105,75.195,0
1578177452.279,10.254,25.879,29.785,62.988,127.441,0
1578177452.283,-6.836,36.133,26.367,43.945,88.379,0
1578177452.286,-20.508,20.508,10.742,29.297,88.867,0
1578177452.290,-11.719,23.438,-18.555,36.621,132.812,0
1578177452.294,0.488,17.578,11.230,45.898,128.906,0
1578177452.298,17.090,15.137,38.574,47.363,40.527,0
1578177452.302,16.602,17.090,9.766,34.668,-2.930,0
1578177452.304,7.324,15.137,-3.418,39.551,49.805,0
1578177452.308,10.254,25.391,10.742,42.969,31.738,0
1578177452.312,10.254,43.945,31.738,46.875,52.246,0
1578177452.316,1.465,46.387,19.043,52.734,74.219,0
1578177452.320,-7.324,21.973,-8.789,41.992,52.734,0
1578177452.324,-3.906,16.602,-14.648,32.715,21.973,0
1578177452.328,-4.883,19.043,7.812,44.434,69.824,0
1578177452.331,1.953,11.719,6.836,46.875,78.613,0
1578177452.335,13.184,11.719,-9.766,36.133,33.691,0
1578177452.339,10.254,15.137,12.207,41.504,93.262,0
1578177452.343,10.254,17.090,24.902,48.340,78.125,0
1578177452.347,20.020,27.344,33.691,55.664,43.945,0
1578177452.349,26.367,21.973,27.344,55.664,81.055,0
1578177452.353,16.602,10.254,14.648,50.293,59.570,0
1578177452.357,13.672,28.320,21.484,65.430,17.578,0
1578177452.361,20.508,33.203,33.691,71.777,18.066,0
1578177452.365,12.207,5.371,15.625,48.828,16.602,0
1578177452.369,0.000,-4.883,-14.160,50.781,22.461,0
1578177452.373,4.883,3.906,-9.277,57.129,27.832,0
1578177452.376,7.812,6.348,1.953,53.223,22.461,0
1578177452.380,5.371,0.488,18.555,52.734,27.344,0
1578177452.384,18.066,24.902,27.344,65.918,0.977,0
1578177452.388,24.902,35.156,13.184,71.289,26.367,0
1578177452.392,22.949,12.207,18.555,62.988,9.766,0
1578177452.395,21.484,5.859,26.855,53.711,-26.367,0
1578177452.399,17.578,4.883,12.695,47.363,21.973,0
1578177452.403,10.742,7.324,-0.488,49.316,53.711,0
1578177452.407,6.836,7.324,15.137,53.711,57.129,0
1578177452.411,12.207,11.719,29.297,59.570,28.809,0
1578177452.415,16.113,24.902,12.695,59.082,26.367,0
1578177452.419,20.020,37.109,-9.766,51.758,77.637,0
1578177452.422,16.113,27.344,-7.324,45.410,54.688,0
1578177452.426,12.207,7.324,23.926,48.340,28.809,0
1578177452.430,26.367,15.137,27.832,66.406,1.953,0
1578177452.434,24.414,24.902,0.000,57.129,-4.883,0
1578177452.438,3.418,21.973,-7.812,40.039,41.504,0
1578177452.439,7.812,30.273,8.789,50.293,45.898,0
1578177452.443,23.438,28.320,22.949,54.688,4.395,0
1578177452.447,17.090,35.645,19.531,58.594,1.465,0
1578177452.451,17.090,56.641,17.578,58.105,-7.324,0
1578177452.455,11.230,34.668,24.902,47.852,-28.320,0
1578177452.459,1.953,10.254,14.648,48.340,10.742,0
1578177452.463,14.160,12.695,-1.465,53.711,49.316,0
1578177452.466,8.789,12.695,-0.488,43.945,75.684,0
1578177452.470,-1.465,19.531,15.625,43.945,11.230,0
1578177452.474,5.371,28.320,23.438,54.199,-15.625,0
1578177452.478,13.184,25.879,23.926,64.941,4.883,0
1578177452.482,18.555,25.391,20.996,61.523,-49.316,0
1578177452.484,3.418,20.508,21.973,47.363,-40.527,0
1578177452.488,0.000,19.531,28.809,47.852,15.625,0
1578177452.492,7.812,26.367,23.926,54.199,21.484,0
1578177452.496,1.953,16.113,-4.395,47.363,-40.527,0
1578177452.500,1.465,15.137,-0.488,53.223,-20.508,0
1578177452.504,10.254,18.066,18.555,68.848,27.832,0
1578177452.508,22.949,17.578,20.508,58.594,29.785,0
1578177452.511,23.438,21.973,26.367,50.781,10.742,0
1578177452.515,9.766,11.230,9.766,44.434,-8.789,0
1578177452.519,0.000,-2.930,15.625,41.016,10.254,0
1578177452.523,-2.930,4.883,36.133,50.781,28.320,0
1578177452.527,-16.602,13.672,19.531,53.223,27.832,0
1578177452.545,-7.324,19.043,-2.930,46.387,5.859,0
1578177452.549,7.812,25.879,9.766,50.293,-18.555,0
1578177452.553,9.277,22.949,36.621,64.453,32.227,0
1578177452.557,17.090,19.531,28.809,63.477,39.551,0
1578177452.561,29.785,17.090,7.324,59.082,5.371,0
1578177452.565,24.902,10.254,-8.789,50.293,48.828,0
1578177452.569,7.812,21.973,8.789,45.898,41.992,0
1578177452.572,8.301,26.855,36.133,57.617,45.898,0
1578177452.576,4.883,20.996,12.695,56.152,34.180,0
1578177452.580,8.301,19.531,8.789,50.781,57.129,0
1578177452.584,7.324,6.836,21.973,48.340,52.246,0
1578177452.588,-9.277,5.371,14.648,41.992,-31.250,0
1578177452.589,2.441,13.184,-2.441,34.180,-5.859,0
1578177452.593,14.160,10.254,2.930,43.945,65.430,0
1578177452.597,15.137,13.672,24.414,46.387,14.160,0
1578177452.601,11.719,20.996,23.926,39.062,24.902,0
1578177452.605,0.488,12.695,6.836,43.945,77.148,0
1578177452.609,0.488,17.578,2.930,52.734,100.586,0
1578177452.613,8.789,30.762,17.578,51.758,45.898,0
1578177452.616,9.766,29.297,31.738,47.363,5.859,0
1578177452.620,6.348,21.484,4.395,43.457,27.832,0
1578177452.624,3.906,10.742,-28.809,36.621,-10.254,0
1578177452.628,9.277,9.277,1.465,36.621,-12.695,0
1578177452.632,11.230,11.230,23.926,40.039,-56.641,0
1578177452.634,8.301,16.113,21.973,48.340,-38.086,0
1578177452.638,0.000,12.695,6.836,44.434,5.371,0
1578177452.642,2.441,13.672,2.930,39.551,-37.109,0
1578177452.646,16.602,18.555,18.555,48.828,-55.176,0
1578177452.650,12.695,12.207,25.391,58.594,-18.066,0
1578177452.654,5.859,4.395,18.066,63.477,51.270,0
1578177452.658,5.371,9.766,13.184,57.617,46.875,0
1578177452.661,9.766,20.508,15.137,56.152,0.000,0
1578177452.665,17.090,9.277,-2.930,59.570,-35.645,0
1578177452.669,17.578,-2.441,-2.441,48.828,0.488,0
1578177452.673,17.578,7.324,9.766,53.711,-5.371,0
1578177452.677,21.484,14.160,19.043,68.848,-2.930,0
1578177452.679,24.414,10.742,32.227,64.941,52.734,0
1578177452.683,17.578,10.742,22.949,61.523,9.766,0
1578177452.687,7.324,21.484,14.648,59.082,-41.016,0
1578177452.691,1.953,27.344,13.672,51.758,-9.277,0
1578177452.695,1.465,15.625,20.508,55.664,29.297,0
1578177452.699,-6.836,3.418,8.789,42.969,23.926,0
1578177452.703,-12.207,5.859,-7.324,36.133,-14.648,0
1578177452.706,0.488,7.324,-5.371,52.246,-62.500,0
1578177452.710,5.859,4.883,8.789,48.828,-10.254,0
1578177452.714,-2.441,1.465,32.715,40.039,45.410,0
1578177452.718,-2.441,9.766,21.484,49.805,33.203,0
1578177452.722,7.812,23.438,9.277,56.152,-4.395,0
1578177452.724,11.719,27.832,31.250,57.129,-20.508,0
1578177452.728,13.184,28.320,50.293,60.547,45.898,0
1578177452.732,7.812,19.531,23.926,54.688,5.371,0
1578177452.736,-5.371,11.719,3.418,41.504,2.930,0
1578177452.740,-7.812,22.949,6.836,35.645,40.527,0
1578177452.744,-12.207,20.508,13.672,31.738,6.836,0
1578177452.748,-9.277,18.555,16.602,30.273,4.883,0
1578177452.751,10.254,27.832,-5.371,30.762,23.926,0
1578177452.755,1.953,18.555,5.371,28.809,64.941,0
1578177452.759,-20.996,8.789,43.457,26.367,48.340,0
1578177452.763,-16.113,16.113,37.109,41.504,22.949,0
1578177452.767,-5.859,17.090,24.414,50.781,26.367,0
1578177452.769,-13.184,7.812,21.973,38.086,24.902,0
1578177452.773,-27.832,3.418,26.367,41.504,33.691,0
1578177452.777,-8.301,4.395,38.086,56.641,66.895,0
1578177452.781,12.207,14.160,34.668,48.828,46.875,0
1578177452.785,0.488,18.555,12.695,34.668,-18.066,0
1578177452.789,-8.301,17.578,12.695,30.762,4.883,0
1578177452.793,-3.418,31.250,24.902,36.133,29.297,0
1578177452.796,5.371,33.203,27.344,43.457,67.871,0
1578177452.800,-4.883,20.996,30.273,49.805,47.363,0
1578177452.804,-16.113,16.113,35.156,49.316,-6.836,0
1578177452.808,-16.113,5.859,30.762,40.039,70.801,0
1578177452.812,-16.113,-1.465,16.602,38.574,96.680,0
1578177452.815,-0.977,-2.441,20.996,38.574,48.828,0
1578177452.819,10.254,0.977,16.602,37.598,4.395,0
1578177452.823,10.254,17.578,38.086,47.363,34.180,0
1578177452.827,6.836,26.855,46.875,47.852,89.355,0
1578177452.831,-1.953,27.832,16.602,40.527,72.266,0
1578177452.835,14.160,28.320,8.789,48.340,24.414,0
1578177452.839,18.066,15.137,5.371,35.156,23.926,0
1578177452.842,-10.742,3.906,7.812,26.367,20.020,0
1578177452.846,-19.043,13.672,29.297,41.504,-10.742,0
1578177452.850,-8.789,14.648,17.090,41.016,9.766,0
1578177452.854,4.395,15.625,14.648,38.086,42.480,0
1578177452.858,2.930,27.832,36.133,38.574,50.293,0
1578177452.859,7.324,29.297,38.574,45.410,56.641,0
1578177452.863,9.277,26.367,10.254,45.898,51.270,0
1578177452.867,-2.441,18.066,13.184,45.898,91.309,0
1578177452.871,16.602,22.461,41.016,48.828,45.410,0
1578177452.875,15.625,19.043,38.086,46.875,58.105,0
1578177452.879,-2.441,9.766,-5.859,38.574,114.258,0
1578177452.883,2.441,22.949,-14.160,28.320,79.102,0
1578177452.886,6.348,34.668,36.133,38.574,65.918,0
1578177452.890,13.184,30.762,42.969,51.758,36.621,0
1578177452.894,18.066,29.297,14.648,45.898,32.227,0
1578177452.898,10.742,25.391,19.043,48.340,56.152,0
1578177452.902,4.883,10.742,38.086,57.129,39.551,0
1578177452.919,17.090,7.324,39.062,51.270,19.531,0
1578177452.923,12.695,16.113,25.879,44.922,66.895,0
1578177452.927,-7.324,20.996,12.695,46.875,63.477,0
1578177452.931,11.230,25.391,20.508,50.781,35.156,0
1578177452.935,22.461,17.578,28.809,48.340,47.852,0
1578177452.939,8.301,12.207,15.137,48.828,73.730,0
1578177452.943,9.277,23.438,7.324,50.781,80.078,0
1578177452.946,32.227,25.879,21.973,59.082,52.734,0
1578177452.950,36.621,17.090,37.109,72.754,10.742,0
1578177452.954,18.555,23.438,34.180,68.848,44.434,0
1578177452.958,20.996,41.504,40.527,59.082,125.977,0
1578177452.962,14.648,30.762,25.391,53.711,82.520,0
1578177452.964,2.441,11.230,11.719,46.387,42.480,0
1578177452.968,30.273,13.672,30.762,64.941,51.270,0
1578177452.972,40.039,18.555,31.250,64.453,42.969,0
1578177452.976,17.578,17.090,26.855,46.387,101.074,0
1578177452.980,18.066,11.719,21.484,51.270,76.660,0
1578177452.984,20.996,16.602,24.414,63.477,29.785,0
1578177452.988,10.254,26.367,34.668,58.594,36.621,0
1578177452.991,6.348,24.902,37.598,53.223,34.180,0
1578177452.995,24.902,21.484,33.203,65.430,-11.230,0
1578177452.999,24.902,18.555,40.527,63.477,-6.836,0
1578177453.003,5.371,14.648,42.480,42.969,20.508,0
1578177453.007,6.836,18.066,12.695,33.203,28.809,0
1578177453.009,20.996,23.926,7.812,49.316,-49.316,0
1578177453.013,12.695,22.461,34.180,53.711,-15.137,0
1578177453.017,11.719,20.508,38.574,56.641,-9.766,0
1578177453.021,20.020,22.949,22.949,65.918,-63.965,0
1578177453.025,17.578,18.555,18.555,57.617,21.484,0
1578177453.029,-0.977,4.395,23.438,44.434,42.969,0
1578177453.033,0.977,7.812,45.410,49.316,43.457,0
1578177453.036,29.785,19.531,39.062,59.570,15.137,0
1578177453.040,28.320,-1.953,-3.906,44.922,-11.719,0
1578177453.044,3.418,-8.789,15.625,36.133,0.488,0
1578177453.048,-12.695,9.277,42.480,41.992,-15.137,0
1578177453.052,-10.254,9.277,14.160,40.527,-27.344,0
1578177453.054,6.836,14.648,0.488,44.922,-16.602,0
1578177453.058,9.277,25.879,18.066,49.805,-26.855,0
1578177453.062,8.301,23.926,41.504,61.523,-20.996,0
1578177453.066,20.020,18.066,36.133,64.941,-1.953,0
1578177453.070,20.996,15.625,18.066,55.176,41.016,0
1578177453.074,7.812,9.277,-2.441,46.875,20.996,0
1578177453.078,9.277,6.836,14.160,53.223,17.578,0
1578177453.081,25.879,11.230,27.344,74.219,-18.555,0
1578177453.085,19.043,6.348,4.883,65.918,-32.715,0
1578177453.089,22.949,7.812,23.438,48.828,10.742,0
1578177453.093,32.227,20.020,28.809,60.547,-27.832,0
1578177453.097,7.324,24.414,23.438,58.594,-13.184,0
1578177453.099,-9.766,15.137,20.020,49.805,23.926,0
1578177453.103,-1.953,9.277,8.301,50.781,-9.277,0
1578177453.107,10.254,25.879,15.137,56.641,-34.180,0
1578177453.111,12.695,33.691,31.738,59.082,27.344,0
1578177453.115,17.090,25.391,37.598,62.500,69.336,0
1578177453.119,20.020,18.066,26.855,70.801,49.316,0
1578177453.123,20.020,16.113,24.902,66.895,104.492,0
1578177453.126,7.324,22.461,9.277,42.480,97.656,0
1578177453.130,1.465,14.160,18.066,40.039,88.867,0
1578177453.134,14.648,-3.906,24.902,45.898,86.426,0
1578177453.138,18.066,13.672,1.953,41.016,31.250,0
1578177453.142,6.348,23.926,17.090,52.734,-0.488,0
1578177453.144,3.418,26.855,46.387,59.570,45.410,0
1578177453.148,18.066,41.504,36.621,62.500,57.617,0
1578177453.152,27.832,37.109,12.207,64.941,21.484,0
1578177453.156,31.738,34.180,29.785,60.547,53.223,0
1578177453.160,19.531,21.484,40.527,56.152,55.664,0
1578177453.164,6.836,7.324,15.625,46.875,34.180,0
1578177453.168,8.789,-1.953,-5.371,42.969,69.824,0
1578177453.171,3.418,4.883,-2.930,37.109,48.340,0
1578177453.175,-5.371,22.461,33.203,34.668,58.105,0
1578177453.179,-2.930,23.438,41.504,44.434,60.547,0
1578177453.183,8.301,28.809,34.668,50.781,58.594,0
1578177453.187,5.859,32.715,34.668,61.035,99.609,0
1578177453.189,21.484,19.531,41.016,63.477,63.477,0
1578177453.193,33.203,17.578,42.480,63.477,23.438,0
1578177453.197,6.348,25.879,20.996,54.688,1.953,0
1578177453.201,13.672,24.902,12.695,44.434,41.016,0
1578177453.205,18.555,13.184,26.367,45.898,62.988,0
1578177453.209,-11.719,10.742,32.227,49.805,54.688,0
1578177453.213,-11.719,18.066,10.254,50.781,103.027,0
1578177453.216,-2.930,20.020,15.137,44.922,85.449,0
1578177453.220,-8.789,15.625,41.504,38.574,82.520,0
1578177453.224,-7.324,9.277,34.180,43.457,68.359,0
1578177453.228,7.324,17.090,21.484,48.340,26.367,0
1578177453.232,15.625,18.066,16.113,44.922,-22.949,0
1578177453.234,21.973,26.855,30.273,54.199,-41.504,0
1578177453.238,16.602,28.320,43.457,62.500,25.391,0
1578177453.242,3.906,7.324,33.203,56.641,62.500,0
1578177453.246,5.859,9.766,22.949,59.082,24.414,0
1578177453.250,3.906,32.227,19.043,58.594,-25.879,0
1578177453.254,2.441,19.531,12.207,55.664,27.832,0
1578177453.258,0.977,12.695,19.531,58.105,115.723,0
1578177453.261,11.719,10.254,36.621,52.246,64.941,0
1578177453.265,28.809,-1.465,24.902,50.781,23.438,0
1578177453.269,2.930,12.207,24.902,56.641,32.715,0
1578177453.273,-12.207,27.344,35.645,47.852,55.664,0
1578177453.277,2.441,23.438,30.762,52.734,19.043,0
1578177453.294,14.648,11.230,19.043,68.848,-45.410,0
1578177453.298,16.113,15.137,20.508,60.547,2.930,0
1578177453.302,3.906,29.785,28.809,50.293,52.734,0
1578177453.306,-0.488,18.066,30.762,53.223,13.672,0
1578177453.310,2.930,-2.441,21.484,53.223,13.184,0
1578177453.314,0.977,3.906,8.301,43.945,38.574,0
1578177453.318,0.000,15.625,27.344,46.387,32.715,0
1578177453.321,8.789,32.227,41.992,54.199,-45.898,0
1578177453.325,11.230,22.461,25.391,46.387,-18.555,0
1578177453.329,-1.465,8.301,1.465,34.180,83.496,0
1578177453.333,5.859,18.066,30.273,47.363,93.262,2
1578177453.337,7.324,12.695,42.969,51.758,35.645,0
1578177453.339,-7.324,10.742,13.184,36.133,12.695,0
1578177453.343,6.348,13.184,14.648,41.992,10.254,0
1578177453.347,13.672,10.742,39.551,59.082,31.738,0
1578177453.351,-4.883,13.672,36.621,58.594,-21.484,0
1578177453.355,5.371,16.602,20.996,48.340,-36.133,0
1578177453.359,23.926,20.020,20.020,57.129,-9.277,0
1578177453.363,28.320,29.297,36.133,61.523,-52.246,0
1578177453.366,20.020,28.320,44.922,60.059,-55.664,0
1578177453.370,11.719,23.926,21.973,54.688,30.762,0
1578177453.374,12.695,23.438,8.789,45.410,40.527,0
1578177453.378,-2.930,18.066,30.273,43.945,43.457,0
1578177453.382,-11.719,20.020,31.738,47.852,89.844,0
1578177453.384,6.348,30.273,31.250,51.758,95.703,0
1578177453.388,17.578,26.367,31.250,49.316,60.059,0
1578177453.392,16.602,6.348,20.020,50.781,26.367,0
1578177453.396,16.113,4.883,27.832,58.105,24.902,0
1578177453.400,6.348,16.113,32.715,55.176,43.457,0
1578177453.404,-4.883,25.391,3.906,44.922,2.441,0
1578177453.408,12.695,32.227,5.371,52.734,-4.395,0
1578177453.411,17.090,25.391,31.738,62.012,8.301,0
1578177453.415,-0.488,26.855,25.391,41.992,76.660,0
1578177453.419,0.000,21.973,14.160,34.668,140.625,0
1578177453.423,20.020,14.648,20.996,54.199,-20.996,0
1578177453.427,18.066,28.320,25.879,59.570,-86.914,0
1578177453.429,2.930,24.902,29.297,50.781,-35.156,0
1578177453.433,6.836,14.648,31.250,50.781,5.859,0
1578177453.437,-5.859,12.207,6.348,46.387,-70.312,0
1578177453.441,-1.953,22.461,-3.906,41.992,-34.668,0
1578177453.445,14.648,30.273,20.020,50.781,0.488,0
1578177453.449,7.812,18.555,28.320,52.734,-13.672,0
1578177453.453,14.160,17.090,10.742,49.316,38.574,0
1578177453.456,21.973,17.090,-9.277,48.340,39.062,0
1578177453.460,4.883,11.719,9.766,44.922,28.809,0
1578177453.464,3.418,16.113,41.016,49.316,-13.184,0
1578177453.468,20.996,20.508,31.250,53.711,3.906,0
1578177453.472,25.391,20.508,11.719,54.688,-25.391,0
1578177453.474,6.348,16.602,19.043,61.523,-56.641,0
1578177453.478,-3.906,8.789,35.645,67.383,-3.906,0
1578177453.482,5.371,16.602,21.484,54.688,-14.648,0
1578177453.486,16.602,20.996,10.742,48.828,-57.129,0
1578177453.490,17.090,18.066,20.996,58.105,-36.133,0
1578177453.494,6.348,6.836,20.996,54.199,-18.555,0
1578177453.498,6.348,4.395,31.250,58.105,-28.809,0
1578177453.501,13.672,15.625,9.766,54.199,-14.160,0
1578177453.505,26.367,12.695,2.441,49.805,30.273,0
1578177453.509,27.832,11.230,35.156,62.500,4.883,0
1578177453.513,17.578,19.043,38.574,68.359,6.836,0
1578177453.517,16.602,24.414,16.602,68.359,-17.578,0
1578177453.520,2.930,16.113,8.789,59.082,-30.762,0
1578177453.524,3.906,6.836,23.926,57.617,-8.301,0
1578177453.528,19.043,17.090,33.691,63.965,-10.254,0
1578177453.532,29.297,25.879,18.066,53.711,11.719,0
1578177453.536,23.438,10.742,-9.277,42.969,-45.898,0
1578177453.540,18.555,10.254,-8.789,49.805,-43.457,0
1578177453.544,14.160,15.137,10.742,54.688,61.523,0
1578177453.547,19.531,22.949,14.160,54.688,105.957,0
1578177453.551,28.809,24.902,24.414,60.059,58.105,0
1578177453.555,31.250,16.113,28.320,68.848,0.488,0
1578177453.559,38.574,15.137,29.297,61.523,51.270,0
1578177453.563,14.648,12.207,14.160,50.293,76.660,0
1578177453.564,3.906,14.160,8.301,50.293,17.578,0
1578177453.568,16.602,26.367,24.414,61.523,65.430,0
1578177453.572,15.625,28.809,30.273,60.059,73.242,0
1578177453.576,12.207,10.254,34.668,47.363,59.082,0
1578177453.580,11.719,4.395,20.996,52.246,56.641,0
1578177453.584,12.695,26.855,9.277,65.430,37.598,0
1578177453.588,14.160,25.879,13.184,50.293,76.172,0
1578177453.591,19.043,8.789,26.855,28.809,97.168,0
1578177453.595,2.441,3.418,28.809,39.551,120.117,0
1578177453.599,-1.953,0.000,10.742,53.711,116.211,0
1578177453.603,-0.488,15.625,16.602,59.082,109.375,0
1578177453.607,-5.859,28.809,29.297,58.105,99.121,0
1578177453.609,0.488,21.973,21.973,55.664,69.336,0
1578177453.613,0.000,5.859,3.418,45.898,94.238,0
1578177453.617,-0.977,0.000,-3.418,37.598,114.746,0
1578177453.621,4.883,11.719,20.020,44.922,32.227,0
1578177453.625,0.488,15.137,35.645,54.199,55.176,0
1578177453.629,20.508,16.113,16.602,62.988,112.793,0
1578177453.633,32.715,17.578,21.484,63.965,143.066,0
1578177453.636,2.930,12.695,41.504,53.711,97.656,0
1578177453.640,-3.906,14.648,35.156,44.922,20.508,0
1578177453.644,18.066,20.020,18.066,47.852,37.598,0
1578177453.648,38.574,30.762,19.043,70.801,51.270,0
1578177453.652,28.809,35.156,29.785,65.918,45.410,0
1578177453.669,0.488,7.324,30.273,54.199,72.266,0
1578177453.673,3.418,-2.441,20.020,48.828,115.234,0
1578177453.677,9.766,21.484,2.930,36.621,80.078,0
1578177453.681,8.301,27.344,20.508,47.852,48.828,0
1578177453.685,14.648,25.391,41.504,59.570,-4.883,0
1578177453.689,27.344,33.691,28.320,59.082,-2.441,0
1578177453.693,29.297,36.133,10.742,64.941,26.367,0
1578177453.696,15.625,19.043,9.766,50.781,27.344,0
1578177453.700,11.719,16.602,19.043,38.574,3.906,0
1578177453.704,6.836,17.578,9.766,42.969,-22.949,0
1578177453.708,-2.930,11.719,5.371,39.551,50.781,0
1578177453.712,-4.395,17.578,6.348,49.805,6.836,0
1578177453.714,5.371,27.832,12.207,57.617,-43.457,0
1578177453.718,15.137,26.367,23.926,59.082,29.785,0
1578177453.722,4.395,15.137,17.090,52.246,44.434,0
1578177453.726,8.789,15.137,4.395,54.688,15.137,0
1578177453.730,1.465,17.578,-3.906,48.828,15.137,0
1578177453.734,-3.906,13.184,3.418,38.574,53.711,0
1578177453.738,13.672,2.930,18.066,53.223,113.770,0
1578177453.741,12.695,5.859,13.672,55.176,60.547,0
1578177453.745,9.766,20.020,1.465,45.898,-3.418,0
1578177453.749,17.578,31.250,10.742,51.270,-0.977,0
1578177453.753,19.043,27.832,41.992,63.477,-11.719,0
1578177453.757,20.996,18.066,26.367,62.012,-30.273,0
1578177453.759,10.254,15.137,12.207,51.758,1.465,0
1578177453.763,5.859,17.090,29.785,55.664,62.500,0
1578177453.767,9.277,26.367,26.855,54.688,4.883,0
1578177453.771,6.348,23.438,4.883,42.480,-41.992,0
1578177453.775,-8.789,18.066,-9.277,37.598,-38.086,0
1578177453.779,-3.906,18.066,1.953,46.387,-49.316,0
1578177453.783,18.555,15.625,38.574,55.176,28.809,0
1578177453.786,19.043,21.973,38.086,51.758,-6.348,0
1578177453.790,18.066,41.016,4.395,57.617,1.465,0
1578177453.794,1.953,31.250,10.742,53.711,78.613,0
1578177453.798,-10.254,18.066,34.180,53.223,12.695,0
1578177453.802,3.906,18.555,20.996,54.688,27.344,0
1578177453.804,7.812,16.602,3.906,51.270,77.148,0
1578177453.808,10.742,13.184,21.484,52.246,-3.418,0
1578177453.812,16.113,5.859,44.922,50.293,35.645,0
1578177453.816,14.160,9.766,33.691,47.852,63.965,0
1578177453.820,7.812,23.926,18.066,45.898,58.105,0
1578177453.824,-7.812,23.438,9.766,41.992,21.973,0
1578177453.828,-16.602,16.113,36.133,44.922,14.160,0
1578177453.831,-4.883,27.832,47.852,54.199,83.984,0
1578177453.835,-0.488,22.949,17.578,44.434,22.461,0
1578177453.839,-2.930,11.230,24.902,39.551,17.578,0
1578177453.843,11.719,17.578,35.156,51.758,67.871,0
1578177453.847,21.973,18.066,38.574,60.547,13.672,0
1578177453.849,12.207,3.906,28.809,60.059,48.828,0
1578177453.853,-6.348,1.465,6.836,44.922,87.891,0
1578177453.857,-4.883,20.508,4.395,43.945,16.113,0
1578177453.861,3.418,21.973,16.602,53.223,0.977,0
1578177453.865,8.301,20.508,28.809,55.664,25.391,0
1578177453.869,19.043,21.973,8.789,53.711,20.508,0
1578177453.873,26.367,18.066,8.789,57.129,-3.418,0
1578177453.876,18.555,22.461,16.113,49.805,3.906,0
1578177453.880,1.953,24.414,22.949,47.363,21.484,0
1578177453.884,1.465,18.066,33.203,56.641,-13.672,0
1578177453.888,11.719,20.508,13.672,59.082,-84.961,0
1578177453.892,5.371,27.344,17.090,57.129,-126.465,0
1578177453.894,-5.371,20.020,30.273,51.758,-59.570,0
1578177453.898,3.906,21.973,17.578,47.852,-53.223,0
1578177453.902,7.324,14.160,-5.371,36.133,-60.059,0
1578177453.906,9.766,9.766,13.184,44.922,3.418,0
1578177453.910,25.879,19.531,47.363,63.477,-3.906,0
1578177453.914,20.020,11.719,26.367,53.711,3.418,0
1578177453.918,-7.324,1.465,-13.184,35.156,36.621,0
1578177453.921,-11.230,7.812,-7.324,32.227,15.625,0
1578177453.925,-3.418,20.508,37.109,43.457,-6.348,0
1578177453.929,1.953,31.738,34.180,58.594,-38.574,0
1578177453.933,26.367,38.574,23.926,66.895,-7.812,0
1578177453.937,30.762,36.621,31.738,64.453,5.371,0
1578177453.939,14.648,15.137,36.621,54.688,5.371,0
1578177453.943,6.836,-2.441,31.738,43.945,71.777,0
1578177453.947,8.789,-0.977,12.207,44.434,81.543,0
1578177453.951,10.742,8.789,1.953,51.270,54.199,0
1578177453.955,7.812,15.625,6.348,50.293,20.508,0
1578177453.959,9.766,20.508,14.160,56.152,20.996,0
1578177453.963,18.555,30.273,-2.930,59.082,12.207,0
1578177453.966,24.414,32.227,1.953,58.594,15.625,0
1578177453.970,23.438,20.996,43.945,70.312,43.945,0
1578177453.974,20.020,20.020,38.086,69.824,59.082,0
1578177453.978,17.578,18.555,11.230,52.734,23.926,0
1578177453.982,11.230,13.672,-0.488,45.410,-17.090,0
1578177453.984,5.371,20.996,0.488,46.875,6.348,0
1578177453.988,-9.766,25.391,11.230,38.086,10.742,0
1578177453.992,-0.488,25.391,15.137,45.410,11.719,0
1578177453.996,10.742,29.785,1.465,48.828,22.949,0
1578177454.000,3.418,23.926,4.395,43.457,10.742,0
1578177454.004,8.789,7.812,16.602,58.594,-26.367,0
1578177454.008,7.324,8.789,11.230,57.129,49.316,0
1578177454.011,-6.836,5.371,3.906,41.992,32.715,0
1578177454.015,-0.488,4.395,-7.324,42.969,-40.527,0
1578177454.019,11.230,10.742,1.465,45.898,-18.555,0
1578177454.023,10.254,11.719,19.531,46.875,-14.648,0
1578177454.027,9.766,24.902,16.602,45.410,-18.555,0
1578177454.044,1.465,38.086,-2.930,49.316,-20.996,0
1578177454.048,-1.953,36.621,-2.441,53.711,-39.551,0
1578177454.052,2.441,30.273,16.602,45.898,-76.172,0
1578177454.056,-6.836,18.555,15.625,38.086,-17.578,0
1578177454.060,0.488,21.973,8.789,51.758,57.129,0
1578177454.064,8.789,23.438,6.348,62.012,89.844,0
1578177454.068,-0.488,11.719,14.160,48.828,96.680,0
1578177454.071,1.953,16.602,15.625,36.133,61.035,0
1578177454.075,-3.418,18.555,0.000,40.039,-42.480,0
1578177454.079,-11.719,24.414,-11.719,44.434,-18.555,0
1578177454.083,0.977,36.133,18.066,39.062,61.035,0
1578177454.087,17.578,32.227,46.875,55.176,41.504,0
1578177454.089,25.879,22.461,23.926,62.500,12.207,0
1578177454.093,14.648,5.371,1.953,46.875,1.953,0
1578177454.097,2.930,8.789,21.973,45.898,22.949,0
1578177454.101,3.418,16.602,37.598,53.711,15.137,0
1578177454.105,1.953,15.137,10.254,52.246,46.387,0
1578177454.109,7.812,21.484,-11.230,42.969,82.031,0
1578177454.113,8.301,22.461,10.254,42.480,43.945,0
1578177454.116,6.348,23.926,37.109,61.523,46.875,0
1578177454.120,9.766,33.691,5.859,58.594,17.090,0
1578177454.124,14.160,37.598,-18.555,42.969,21.484,0
1578177454.128,25.391,14.648,16.602,51.758,37.109,0
1578177454.132,10.254,4.395,36.133,53.711,51.270,0
1578177454.134,-2.441,18.555,22.461,49.805,73.242,0
1578177454.138,10.742,21.484,9.277,54.688,54.199,0
1578177454.142,17.090,21.484,10.742,45.898,9.766,0
1578177454.146,13.184,33.691,28.809,42.969,15.137,0
1578177454.150,2.930,38.574,34.668,53.711,62.500,0
1578177454.154,3.418,18.555,14.160,50.293,61.035,0
1578177454.158,11.230,10.254,10.742,45.410,110.840,0
1578177454.161,3.906,26.855,20.996,53.711,71.289,0
1578177454.165,3.906,18.555,15.137,54.199,48.828,0
1578177454.169,4.395,-2.441,9.766,48.340,62.500,0
1578177454.173,6.348,16.113,17.090,55.664,55.664,0
1578177454.177,13.672,27.832,14.648,50.781,91.797,0
1578177454.179,4.395,19.531,13.184,43.945,27.832,0
1578177454.183,16.602,29.785,27.344,58.594,-11.719,0
1578177454.187,16.113,24.414,19.043,60.547,31.738,0
1578177454.191,6.836,17.090,-1.465,48.828,23.438,0
1578177454.195,17.578,23.438,24.902,58.105,34.668,0
1578177454.199,20.020,10.254,33.691,59.082,63.965,0
1578177454.203,15.137,1.953,15.137,53.223,54.199,0
1578177454.206,7.812,9.277,1.465,45.898,54.688,0
1578177454.210,10.254,16.113,3.906,35.645,52.734,0
1578177454.214,7.324,16.602,26.367,32.715,17.090,0
1578177454.218,12.207,17.090,20.996,41.504,40.527,0
1578177454.222,8.301,19.043,9.766,43.945,90.820,0
1578177454.224,-4.395,19.531,9.766,38.086,60.547,0
1578177454.228,16.113,36.621,39.551,59.570,36.621,0
1578177454.232,31.738,33.691,50.781,68.359,50.781,0
1578177454.236,17.578,0.000,20.508,51.270,113.281,0
1578177454.240,10.254,-2.930,-3.418,49.316,53.711,0
1578177454.244,0.000,9.766,12.695,47.852,23.926,0
1578177454.248,-4.395,9.277,28.809,40.039,90.820,0
1578177454.251,11.719,16.113,-1.953,39.062,72.266,0
1578177454.255,16.113,18.555,5.859,53.711,31.738,0
1578177454.259,13.672,13.184,37.598,54.688,30.762,0
1578177454.263,24.902,13.672,28.320,47.363,-10.254,0
1578177454.267,24.902,5.859,17.578,53.711,-44.434,0
1578177454.269,19.043,0.000,14.648,58.105,-17.578,0
1578177454.273,3.418,2.441,20.020,62.012,-55.664,0
1578177454.277,-1.953,22.949,28.320,53.711,-52.734,0
1578177454.281,4.395,32.715,20.020,45.898,-5.371,0
1578177454.285,-1.465,6.836,1.465,40.527,-23.926,0
1578177454.289,0.000,13.184,8.301,44.434,-0.488,0
1578177454.293,9.277,27.344,12.207,48.340,17.578,0
1578177454.296,5.371,-1.953,-2.441,40.527,-32.715,0
1578177454.300,-7.324,-9.277,10.254,49.316,-35.645,0
1578177454.304,-4.395,15.625,10.742,60.059,-40.039,0
1578177454.308,-13.184,10.254,7.812,45.410,8.789,0
1578177454.312,1.953,5.371,20.020,50.293,22.949,0
1578177454.314,22.949,24.414,23.438,68.359,-6.836,0
1578177454.318,11.230,31.738,14.160,62.012,-36.133,0
1578177454.322,3.906,22.949,19.531,56.152,-31.250,0
1578177454.326,-4.883,18.066,26.367,55.664,-2.930,0
1578177454.330,-9.277,3.418,12.695,54.199,-26.855,0
1578177454.334,-5.859,5.371,-0.488,51.758,9.766,0
1578177454.338,-0.977,12.695,-5.859,40.039,34.180,1
1578177454.341,3.418,13.672,23.438,46.387,24.902,0
1578177454.345,18.555,22.949,49.805,66.895,52.246,0
1578177454.349,34.180,28.809,24.902,72.266,91.797,0
1578177454.353,21.973,23.438,24.414,71.777,62.012,0
1578177454.357,7.324,39.551,42.480,56.641,54.199,0
1578177454.359,10.742,20.996,27.832,50.293,-12.695,0
1578177454.363,7.812,-11.719,4.883,51.270,15.137,0
1578177454.367,-0.488,7.324,0.488,41.992,94.727,0
1578177454.371,-1.465,15.137,11.719,35.645,19.531,0
1578177454.375,-13.184,8.301,8.789,42.969,-25.879,0
1578177454.379,-6.836,16.602,-8.789,55.664,-16.602,0
1578177454.383,6.836,29.297,-5.371,57.129,-41.992,0
1578177454.386,0.488,19.531,33.691,51.270,-13.672,0
1578177454.390,1.953,11.719,39.551,49.805,42.480,0
1578177454.394,22.949,23.438,17.090,59.082,-6.836,0
1578177454.398,20.996,23.438,8.301,50.293,34.668,0
1578177454.402,6.348,10.742,21.973,56.641,64.453,0
1578177454.419,3.418,7.324,27.832,58.105,71.289,0
1578177454.423,1.465,16.113,12.695,45.410,26.855,0
1578177454.427,0.000,12.207,6.836,48.828,-35.645,0
1578177454.431,4.883,7.812,23.926,51.270,7.812,0
1578177454.435,6.348,11.719,38.574,58.105,39.551,0
1578177454.439,1.953,18.066,16.113,45.898,7.324,0
1578177454.443,6.348,27.832,3.906,41.016,8.301,0
1578177454.446,13.672,22.949,31.250,54.199,68.359,0
1578177454.450,27.344,17.090,37.109,55.176,83.008,0
1578177454.454,34.668,22.949,18.066,52.246,69.336,0
1578177454.458,21.484,25.391,20.020,54.199,105.957,0
1578177454.462,4.883,12.207,19.531,49.805,46.875,0
1578177454.464,10.742,8.301,24.902,55.664,-5.371,0
1578177454.468,18.555,18.555,42.969,60.547,37.109,0
1578177454.472,15.625,15.625,28.809,43.945,56.152,0
1578177454.476,16.113,13.672,3.906,46.387,18.066,0
1578177454.480,30.762,5.371,15.625,57.617,51.270,0
1578177454.484,27.832,11.230,29.297,52.246,100.098,0
1578177454.488,4.883,25.879,32.227,49.316,52.246,0
1578177454.491,9.277,23.926,26.367,61.035,20.508,0
1578177454.495,23.926,31.738,13.672,71.289,102.539,0
1578177454.499,22.461,35.645,20.996,58.105,122.559,0
1578177454.503,9.277,8.301,36.621,47.852,68.848,0
1578177454.507,13.184,-0.977,19.043,51.758,48.340,0
1578177454.509,8.789,3.906,2.441,47.363,61.035,0
1578177454.513,7.324,13.184,6.836,49.316,57.129,0
1578177454.517,14.648,25.391,26.367,56.641,33.691,0
1578177454.521,11.230,21.973,23.438,58.105,5.371,0
1578177454.525,3.418,12.207,4.395,49.316,36.133,0
1578177454.529,12.695,22.949,30.273,55.664,137.207,0
1578177454.533,28.809,35.645,53.223,62.988,149.902,0
1578177454.536,3.418,18.066,41.504,51.758,71.289,0
1578177454.540,1.465,9.766,8.301,49.316,109.375,0
1578177454.544,9.277,15.137,15.137,56.152,124.023,0
1578177454.548,3.418,14.648,42.480,54.688,58.594,0
1578177454.552,8.301,15.137,22.461,49.805,16.113,0
1578177454.554,5.859,16.602,9.766,51.270,34.668,0
1578177454.558,4.883,26.855,21.484,59.082,75.684,0
1578177454.562,11.719,24.414,31.250,70.312,46.387,0
1578177454.566,19.531,20.020,27.832,64.453,33.691,0
1578177454.570,17.090,22.461,12.207,61.523,16.113,0
1578177454.574,18.555,20.996,2.441,70.312,-20.508,0
1578177454.578,12.207,26.367,20.020,63.965,63.965,0
1578177454.581,0.488,18.066,21.484,52.734,122.559,0
1578177454.585,9.277,14.648,4.395,56.152,103.027,0
1578177454.589,15.137,13.672,12.695,62.012,20.020,0
1578177454.593,15.137,3.906,21.973,60.547,-46.387,0
1578177454.597,22.461,6.836,24.414,61.035,-24.902,0
1578177454.599,25.391,19.043,27.832,62.012,6.836,0
1578177454.603,26.367,18.555,20.020,64.453,-29.785,0
1578177454.607,33.203,22.461,11.230,69.336,-68.848,0
1578177454.611,24.414,27.832,17.090,69.824,-91.309,0
1578177454.615,18.555,21.484,13.184,60.547,-63.965,0
1578177454.619,25.391,15.625,-7.812,56.641,-51.270,0
1578177454.623,23.438,4.883,3.906,61.035,-13.672,0
1578177454.626,15.625,6.836,10.742,59.082,32.715,0
1578177454.630,19.531,13.184,15.625,52.246,2.441,0
1578177454.634,29.297,20.508,28.809,54.688,-38.086,0
1578177454.638,21.484,16.113,4.883,53.223,-37.598,0
1578177454.642,20.996,23.926,7.324,59.082,19.043,0
1578177454.646,22.949,25.391,20.508,54.199,14.160,0
1578177454.650,17.578,7.324,10.254,44.434,17.090,0
1578177454.654,23.438,22.461,-0.488,49.805,64.941,0
1578177454.658,-0.488,24.902,8.789,44.922,60.059,0
1578177454.662,-14.648,15.137,31.738,41.504,76.172,0
1578177454.666,-3.418,20.020,21.484,40.039,116.699,0
1578177454.670,2.441,23.438,-7.324,40.039,99.609,0
1578177454.673,-0.488,13.672,-2.930,41.016,34.668,0
1578177454.677,-11.719,1.953,34.180,40.039,35.156,0
1578177454.681,-2.930,13.672,33.691,45.898,34.180,0
1578177454.685,7.812,13.184,13.184,43.457,54.199,0
1578177454.689,0.977,6.836,6.836,35.156,79.102,0
1578177454.689,-9.277,21.973,30.762,41.992,44.434,0
1578177454.693,-3.418,32.715,43.457,46.875,67.871,0
1578177454.697,-10.742,29.785,16.113,37.598,82.520,0
1578177454.701,-10.742,21.973,1.465,34.180,31.250,0
1578177454.705,-3.906,14.648,12.695,35.645,12.207,0
1578177454.709,-9.277,8.789,16.113,33.203,22.461,0
1578177454.713,2.930,13.184,-5.859,30.762,1.953,0
1578177454.716,18.066,12.207,-0.977,29.785,42.480,0
1578177454.720,3.418,7.324,31.250,38.574,46.387,0
1578177454.724,-13.184,7.812,30.273,39.062,-0.488,0
1578177454.728,4.883,18.066,29.785,44.922,-41.016,0
1578177454.732,7.812,26.367,34.180,49.316,-14.160,0
1578177454.734,-2.930,26.367,29.297,45.410,-39.551,0
1578177454.738,2.441,23.438,28.320,49.316,-79.590,0
1578177454.742,11.230,23.438,27.344,57.129,-10.742,0
1578177454.746,14.160,14.648,21.484,61.035,-4.883,0
1578177454.750,7.324,4.395,10.254,49.805,-31.250,0
1578177454.754,-4.883,9.766,3.906,49.805,-2.441,0
1578177454.758,-1.953,10.254,18.555,54.688,42.969,0
1578177454.761,6.348,18.066,30.273,53.223,20.996,0
1578177454.765,15.625,15.625,15.137,48.828,-65.918,0
1578177454.769,18.066,5.859,21.484,54.688,-70.801,0
1578177454.773,12.207,12.695,42.969,57.129,15.625,0
1578177454.777,15.625,23.438,43.945,56.641,48.828,0
1578177454.795,20.996,21.484,25.391,60.059,31.250,0
1578177454.799,22.461,8.301,13.184,56.152,7.812,0
1578177454.803,16.602,8.789,28.320,59.082,33.691,0
1578177454.807,11.719,17.578,31.738,65.430,-43.945,0
1578177454.811,13.672,26.855,15.137,69.824,7.812,0
1578177454.815,22.949,16.113,4.883,71.289,64.453,0
1578177454.819,18.555,1.953,15.137,54.688,20.508,0
1578177454.822,1.465,5.859,25.391,42.969,33.203,0
1578177454.826,-0.488,8.301,7.324,50.781,-11.230,0
1578177454.830,9.277,9.277,-7.324,44.434,16.602,0
1578177454.834,-5.371,2.441,22.949,40.527,51.758,0
1578177454.838,-7.812,10.254,33.203,41.016,5.859,0
1578177454.840,1.465,26.367,11.230,45.898,-34.180,0
1578177454.844,9.277,30.762,15.625,54.688,-0.977,0
1578177454.848,16.113,25.391,23.438,56.152,-7.324,0
1578177454.852,16.113,30.762,25.391,53.223,-67.383,0
1578177454.856,6.836,43.945,13.672,46.875,-52.246,0
1578177454.860,-10.742,29.785,-12.207,44.922,-25.879,0
1578177454.864,-2.930,20.020,-2.930,39.062,-40.527,0
1578177454.867,12.695,29.297,21.484,40.039,-18.555,0
1578177454.871,10.254,18.066,4.883,46.875,28.320,0
1578177454.875,2.441,14.160,-11.230,49.316,24.414,0
1578177454.879,-2.930,23.926,15.137,46.875,43.457,0
1578177454.883,7.324,8.789,25.391,49.316,41.016,0
1578177454.885,24.414,4.883,20.996,58.105,-22.461,0
1578177454.889,18.066,21.484,15.137,66.406,24.414,0
1578177454.893,19.531,24.414,4.395,65.918,38.086,0
1578177454.897,28.320,20.996,14.160,68.359,51.270,0
1578177454.901,22.461,20.508,20.508,62.012,80.078,0
1578177454.905,4.883,28.320,-1.465,52.246,50.293,0
1578177454.909,21.973,25.879,7.324,72.754,40.527,0
1578177454.912,39.062,6.836,21.973,71.289,42.969,0
1578177454.916,18.066,2.930,-2.441,43.945,35.645,0
1578177454.920,0.977,8.789,-0.977,42.480,77.148,0
1578177454.924,3.418,19.043,9.766,54.199,66.895,0
1578177454.928,15.625,31.250,1.953,56.641,21.973,0
1578177454.929,15.625,26.367,11.719,57.129,13.184,0
1578177454.933,14.648,6.348,12.695,51.758,-26.855,0
1578177454.937,18.555,-0.488,2.441,55.664,-64.453,0
1578177454.941,19.043,10.742,-0.977,54.688,24.902,0
1578177454.945,1.465,11.719,10.254,45.898,74.707,0
1578177454.949,11.230,12.695,26.855,56.152,25.879,0
1578177454.953,29.297,19.043,17.090,63.477,-19.531,0
1578177454.956,12.207,13.672,-4.395,56.152,-10.254,0
1578177454.960,0.977,15.137,-0.977,43.945,63.965,0
1578177454.964,4.395,25.391,27.344,41.992,-0.977,0
1578177454.968,14.648,26.855,24.414,58.594,-57.617,0
1578177454.972,5.859,18.555,9.277,54.199,39.551,0
1578177454.974,0.977,13.672,9.766,47.852,5.371,0
1578177454.978,0.488,4.883,23.438,56.152,-2.930,0
1578177454.982,9.766,2.930,20.996,59.570,74.707,0
1578177454.986,17.090,25.879,9.277,56.641,18.066,0
1578177454.990,6.836,34.180,10.254,56.152,-13.672,0
1578177454.994,13.184,14.160,14.160,61.035,13.184,0
1578177454.998,22.461,14.648,33.691,70.801,44.434,0
1578177455.001,15.137,34.180,9.277,66.406,87.891,0
1578177455.005,13.184,28.809,-13.672,49.805,70.801,0
1578177455.009,-1.953,13.184,11.719,42.969,7.324,0
1578177455.013,-11.230,17.578,20.020,45.898,62.012,0
1578177455.017,8.301,25.391,9.766,52.246,55.664,0
1578177455.019,22.461,19.531,8.789,53.711,-3.906,0
1578177455.023,15.625,18.555,29.297,62.012,19.531,0
1578177455.027,3.906,22.461,24.902,57.129,22.461,0
1578177455.031,7.324,26.367,5.371,46.875,5.371,0
1578177455.035,17.090,26.855,1.953,48.828,-17.090,0
1578177455.039,19.043,36.621,17.090,56.641,54.199,0
1578177455.043,12.207,39.551,15.625,54.199,99.609,0
1578177455.046,-18.555,15.625,-3.906,31.250,94.238,0
1578177455.050,-21.973,3.418,1.953,21.973,65.430,0
1578177455.054,-8.301,3.906,1.953,31.738,4.883,0
1578177455.058,-6.348,13.184,4.395,36.133,-31.250,0
1578177455.062,2.441,20.020,20.508,36.133,16.602,0
1578177455.064,4.883,8.301,16.113,46.387,-3.906,0
1578177455.068,10.254,11.719,10.254,60.059,-19.043,0
1578177455.072,17.578,23.438,24.902,57.129,58.105,0
1578177455.076,33.203,29.297,37.109,61.523,3.906,0
1578177455.080,35.156,30.273,19.043,70.801,-62.500,0
1578177455.084,16.602,16.113,-8.789,55.176,-1.465,0
1578177455.088,-6.836,7.324,-21.484,29.297,58.105,0
1578177455.091,-22.461,17.090,0.977,22.461,12.207,0
1578177455.095,0.000,18.066,12.695,40.527,20.996,0
1578177455.099,16.113,12.695,-8.301,51.270,2.930,0
1578177455.103,4.395,18.066,12.695,57.617,17.578,0
1578177455.107,-4.395,13.672,39.551,48.828,80.078,0
1578177455.109,-5.371,10.742,42.969,40.039,38.086,0
1578177455.113,11.230,26.855,23.926,52.734,28.320,0
1578177455.117,19.043,28.320,3.418,53.711,13.672,0
1578177455.121,2.930,20.020,18.066,52.246,2.441,0
1578177455.125,23.926,21.484,21.973,54.688,-0.488,0
1578177455.129,23.926,16.602,-1.953,49.316,68.359,0
1578177455.133,3.418,5.859,-14.648,44.922,105.469,0
1578177455.136,4.883,11.230,13.672,47.852,70.801,0
1578177455.140,13.184,25.879,30.762,58.105,20.996,0
1578177455.144,30.762,27.832,22.461,62.988,12.207,0
1578177455.148,19.531,21.484,9.766,61.035,34.668,0
1578177455.152,8.301,19.531,9.277,56.641,54.688,0
1578177455.169,23.438,18.555,13.184,61.035,37.109,0
1578177455.173,15.137,12.695,15.625,63.965,-2.441,0
1578177455.177,17.090,14.160,14.648,66.895,46.875,0
1578177455.181,25.879,15.137,21.484,69.824,66.895,0
1578177455.185,9.766,20.996,25.391,57.129,42.969,0
1578177455.189,1.953,20.020,5.371,45.410,10.742,0
1578177455.193,7.324,8.789,-2.930,41.016,42.969,0
1578177455.196,9.277,10.254,6.348,47.363,60.059,0
1578177455.200,8.789,16.113,20.996,51.270,57.617,0
1578177455.204,9.277,22.949,16.602,47.852,53.711,0
1578177455.208,5.859,25.391,9.766,50.781,20.020,0
1578177455.212,5.371,7.812,11.719,52.734,-3.906,0
1578177455.214,20.020,11.230,18.066,56.641,-41.016,0
1578177455.218,27.832,29.785,34.180,59.082,-15.625,0
1578177455.222,7.812,22.949,19.043,45.898,24.902,0
1578177455.226,6.348,9.766,1.953,47.852,14.648,0
1578177455.230,4.883,0.977,4.395,50.293,78.613,0
1578177455.234,8.789,12.207,19.043,48.340,164.062,0
1578177455.238,22.461,16.602,33.691,50.781,131.836,0
1578177455.241,-1.953,-1.465,20.996,46.875,92.773,0
1578177455.245,-1.465,-4.395,0.977,47.852,100.098,0
1578177455.249,12.207,20.996,16.602,50.293,108.398,0
1578177455.253,7.324,29.297,37.598,51.270,78.125,0
1578177455.257,3.418,14.648,14.648,59.082,29.297,0
1578177455.259,15.625,4.883,0.000,62.988,9.766,0
1578177455.263,19.043,8.301,10.254,49.316,20.508,0
1578177455.267,2.930,20.020,20.020,45.898,23.926,0
1578177455.271,3.418,8.789,6.348,53.223,-75.684,0
1578177455.275,17.578,3.906,5.859,55.664,-54.199,0
1578177455.279,7.812,10.254,18.066,48.340,28.809,0
1578177455.283,-6.348,16.113,24.902,45.410,-3.906,0
1578177455.286,0.977,16.602,29.785,52.246,-9.277,0
1578177455.290,8.301,8.789,0.977,51.270,-14.648,0
1578177455.294,4.395,22.461,4.395,45.410,-72.754,0
1578177455.298,7.324,25.391,41.992,50.293,-28.320,0
1578177455.302,27.344,9.766,41.016,66.406,23.438,0
1578177455.304,31.738,10.742,24.902,63.965,12.695,0
1578177455.308,17.090,7.812,26.855,54.199,-28.320,0
1578177455.312,7.812,9.766,44.922,62.500,-59.570,0
1578177455.316,-7.812,23.438,36.621,57.129,27.832,0
1578177455.320,-12.695,23.926,3.418,44.434,72.266,0
1578177455.324,9.277,16.113,-8.789,45.410,-2.441,0
1578177455.328,10.742,22.949,21.484,48.340,-7.324,0
1578177455.331,12.207,27.344,32.227,49.805,74.707,0
1578177455.335,10.254,25.879,11.719,45.410,84.473,0
1578177455.339,4.395,18.066,22.949,45.410,41.504,0
1578177455.343,15.137,19.531,47.363,61.523,95.215,0
1578177455.347,14.160,17.090,50.293,56.152,101.074,0
1578177455.349,18.555,16.113,31.738,51.758,66.406,0
1578177455.353,25.879,22.461,20.996,55.176,62.988,0
1578177455.357,16.113,21.973,27.344,52.734,92.773,0
1578177455.361,20.508,26.855,46.387,69.824,59.082,0
1578177455.365,29.785,22.949,47.852,63.477,60.059,0
1578177455.369,10.742,13.184,21.484,43.945,52.734,0
1578177455.373,8.789,24.902,25.879,46.875,42.480,2
1578177455.376,-6.836,22.461,32.715,50.293,89.355,0
1578177455.380,-16.602,5.371,21.973,41.504,39.062,0
1578177455.384,9.277,14.160,26.367,39.062,44.922,0
1578177455.388,9.277,14.160,24.414,46.387,107.910,0
1578177455.392,7.324,7.812,30.762,43.457,86.426,0
1578177455.394,-1.465,14.648,28.320,37.109,61.523,0
1578177455.398,-12.207,6.836,17.578,39.062,19.531,0
1578177455.402,-4.883,2.441,13.184,38.574,40.039,0
1578177455.406,13.672,14.160,26.367,45.410,83.496,0
1578177455.410,0.977,9.277,36.133,46.875,40.039,0
1578177455.414,-1.465,13.672,19.531,34.180,67.871,0
1578177455.418,14.648,15.625,3.418,28.320,80.078,0
1578177455.421,7.812,7.324,13.184,39.062,36.621,0
1578177455.425,1.465,14.648,44.922,39.551,11.230,0
1578177455.429,12.695,13.672,33.203,33.691,47.363,0
1578177455.433,21.973,15.137,1.465,39.062,64.453,0
1578177455.437,3.418,16.113,4.395,39.551,60.547,0
1578177455.439,-4.883,13.672,40.527,52.246,124.023,0
1578177455.443,4.395,19.043,43.945,58.594,34.668,0
1578177455.447,4.883,19.531,18.066,42.480,-9.766,0
1578177455.451,4.883,13.672,1.465,36.133,18.066,0
1578177455.455,-4.395,12.695,-0.488,41.992,-46.387,0
1578177455.459,-3.906,18.555,15.137,57.617,-2.441,0
1578177455.463,7.324,13.184,-0.977,48.828,47.852,0
1578177455.466,6.348,14.160,-9.277,34.180,59.570,0
1578177455.470,-0.977,19.531,23.438,42.480,55.176,0
1578177455.474,-4.395,15.137,31.250,42.969,43.457,0
1578177455.478,0.977,9.277,17.578,47.852,32.227,0
1578177455.482,3.418,13.184,11.230,46.387,59.082,0
1578177455.484,7.812,29.785,6.348,44.434,0.488,0
1578177455.488,-6.836,17.578,4.395,39.551,-24.902,0
1578177455.492,-10.254,2.930,10.254,35.156,54.199,0
1578177455.496,13.672,19.043,6.348,51.758,-61.523,0
1578177455.500,5.371,26.367,8.789,62.500,-109.863,0
1578177455.504,-0.977,16.602,21.484,44.434,26.367,0
1578177455.508,23.926,0.977,25.879,45.898,-33.691,0
1578177455.511,14.648,-1.953,42.480,56.152,-33.691,0
1578177455.515,0.977,14.160,30.273,41.504,-7.812,0
1578177455.519,10.742,31.250,15.137,43.457,-32.227,0
1578177455.523,7.324,22.461,25.879,45.898,2.930,0
1578177455.527,13.184,12.207,24.414,48.828,-4.883,0
1578177455.545,18.555,23.926,12.695,57.129,-27.832,0
1578177455.549,7.324,14.648,3.906,46.875,-59.570,0
1578177455.553,6.348,-8.789,18.555,54.688,-40.039,0
1578177455.557,18.555,-6.348,32.715,62.500,-18.555,0
1578177455.561,31.738,21.484,12.695,50.293,-33.203,0
1578177455.565,46.387,26.367,3.906,48.340,1.953,0
1578177455.569,29.785,11.719,30.273,58.105,19.531,0
1578177455.572,5.859,4.395,44.922,55.176,10.254,0
1578177455.576,-0.977,5.859,22.949,50.781,-0.488,0
1578177455.580,-12.207,9.277,-14.648,47.852,-62.012,0
1578177455.584,-10.742,9.766,10.254,47.852,-26.855,0
1578177455.588,-1.465,2.930,40.039,51.758,16.113,0
1578177455.589,2.930,-0.488,12.695,47.363,-32.715,0
1578177455.593,6.348,4.883,2.441,45.410,10.254,0
1578177455.597,10.742,10.254,16.602,48.828,6.836,0
1578177455.601,12.207,18.066,46.875,59.570,0.488,0
1578177455.605,8.789,14.160,35.645,58.105,27.344,0
1578177455.609,12.695,2.441,2.930,52.246,19.531,0
1578177455.613,21.484,7.324,19.531,59.082,26.855,0
1578177455.616,11.230,0.488,32.715,55.664,-5.859,0
1578177455.620,1.465,9.277,8.301,48.828,-50.293,0
1578177455.624,-6.836,27.832,-9.277,43.945,8.301,0
1578177455.628,-12.695,8.789,11.719,31.738,35.156,0
1578177455.632,-6.348,-1.953,31.738,26.855,31.250,0
1578177455.634,-3.418,16.113,34.180,34.668,54.199,0
1578177455.638,5.859,24.414,21.484,47.852,56.641,0
1578177455.642,8.789,17.090,19.531,63.965,20.508,0
1578177455.646,10.254,17.578,31.250,54.688,2.441,0
1578177455.650,21.484,24.414,41.504,52.734,39.551,0
1578177455.654,21.484,20.020,23.926,58.105,63.477,0
1578177455.658,2.441,17.090,1.953,42.480,41.992,0
1578177455.661,-2.441,10.254,13.672,38.086,-36.621,0
1578177455.665,14.160,-0.488,8.789,39.551,-44.922,0
1578177455.669,16.602,13.184,7.812,40.527,34.180,0
1578177455.673,14.648,19.043,30.762,51.758,90.332,0
1578177455.677,19.531,17.578,24.902,53.711,147.461,0
1578177455.679,20.508,26.367,26.367,52.246,122.559,0
1578177455.683,11.719,24.414,33.203,54.688,78.613,0
1578177455.687,15.137,25.391,24.902,58.594,105.957,0
1578177455.691,23.438,28.809,18.066,68.848,118.164,0
1578177455.695,10.254,23.438,14.648,62.500,90.332,0
1578177455.699,9.766,14.648,15.625,52.734,55.176,0
1578177455.703,17.090,6.348,21.973,49.316,58.105,0
1578177455.706,9.766,10.254,5.859,45.898,46.387,0
1578177455.710,5.371,9.766,-0.488,46.387,46.387,0
1578177455.714,20.020,12.695,40.527,43.457,53.711,0
1578177455.718,12.207,6.348,34.668,43.945,44.922,0
1578177455.722,7.812,9.277,19.531,56.152,52.246,0
1578177455.725,8.789,28.320,32.715,57.617,42.969,0
1578177455.729,1.465,20.996,36.133,52.246,27.832,0
1578177455.733,15.137,8.789,35.156,59.570,46.387,0
1578177455.737,25.391,20.996,33.203,72.266,60.059,0
1578177455.741,19.531,22.461,25.391,59.082,79.102,0
1578177455.745,13.184,2.441,24.902,51.758,59.082,0
1578177455.749,7.324,-4.395,27.832,55.664,90.820,0
1578177455.752,10.742,8.301,0.488,48.340,62.988,0
1578177455.756,21.973,9.277,6.836,51.270,34.668,0
1578177455.760,30.762,14.648,46.387,60.059,57.617,0
1578177455.764,23.926,18.555,41.504,62.012,33.691,0
1578177455.768,24.902,9.766,31.250,75.684,36.133,0
1578177455.770,33.203,30.273,36.133,78.125,47.852,0
1578177455.774,10.742,26.367,33.203,63.477,24.414,0
1578177455.778,-1.953,2.441,19.531,56.641,46.875,0
1578177455.782,16.602,12.695,19.043,62.500,70.801,0
1578177455.786,26.367,12.695,17.090,71.777,46.875,0
1578177455.790,25.879,9.766,10.254,74.219,56.641,0
1578177455.794,13.672,17.090,18.555,62.500,91.797,0
1578177455.797,11.230,13.672,10.254,50.293,65.918,0
1578177455.801,18.066,22.461,27.832,59.082,45.410,0
1578177455.805,16.602,26.855,38.574,58.105,60.547,0
1578177455.809,6.348,13.184,30.273,45.898,70.801,0
1578177455.813,0.488,6.348,24.414,44.434,52.734,0
1578177455.815,6.348,11.230,14.160,41.016,11.230,0
1578177455.819,21.973,20.020,22.461,54.199,33.203,0
1578177455.823,19.043,17.090,41.016,66.406,43.457,0
1578177455.827,0.977,14.648,35.156,57.129,67.383,0
1578177455.831,18.555,11.230,16.602,58.594,45.410,0
1578177455.835,28.809,3.906,7.324,57.129,-4.883,0
1578177455.839,12.695,14.648,9.277,56.641,10.254,0
1578177455.842,17.578,17.578,25.391,54.199,38.086,0
1578177455.846,6.836,2.930,27.344,43.457,-10.742,0
1578177455.850,0.977,9.766,14.648,52.246,9.277,0
1578177455.854,7.812,18.555,20.508,51.758,3.418,0
1578177455.858,2.441,10.742,40.527,44.922,20.508,0
1578177455.875,3.906,13.672,34.180,54.688,27.344,0
1578177455.879,4.395,12.695,-4.395,54.688,-5.859,0
1578177455.883,15.625,14.648,-1.953,53.711,39.062,0
1578177455.887,21.973,12.207,28.809,63.477,24.902,0
1578177455.891,30.273,9.766,27.832,67.383,-27.344,0
1578177455.895,18.066,16.113,0.977,59.082,11.719,0
1578177455.899,-0.977,23.926,-12.695,53.711,48.828,0
1578177455.902,0.488,40.039,36.133,57.129,25.391,0
1578177455.906,4.395,44.434,60.059,47.363,43.945,0
1578177455.910,1.465,26.855,14.648,39.551,62.988,0
1578177455.914,-1.953,16.602,-7.812,41.504,45.898,0
1578177455.918,-1.465,14.648,10.254,38.086,17.578,0
1578177455.920,-2.930,-4.883,21.973,46.875,-12.207,0
1578177455.924,-1.953,-9.277,23.438,56.641,-3.906,0
1578177455.928,3.418,14.160,20.508,49.805,-20.508,0
1578177455.932,8.789,22.949,15.625,41.992,14.648,0
1578177455.936,5.371,18.066,14.648,36.133,91.309,0
1578177455.940,1.465,7.812,14.160,45.410,55.176,0
1578177455.944,11.230,15.137,11.230,60.059,11.719,0
1578177455.947,17.578,16.602,10.742,54.199,-1.953,0
1578177455.951,14.160,-0.977,27.344,52.246,-27.832,0
1578177455.955,11.230,9.766,19.043,47.852,-18.066,0
1578177455.959,0.000,13.184,14.648,38.574,-28.809,0
1578177455.963,-9.766,9.766,31.738,48.340,-29.785,0
1578177455.964,14.648,24.414,40.527,57.129,4.883,0
1578177455.968,13.184,23.926,37.109,52.734,-23.438,0
1578177455.972,9.277,19.043,26.855,52.734,-16.113,0
1578177455.976,15.625,24.902,27.832,56.641,60.059,0
1578177455.980,16.602,14.648,29.785,57.617,72.754,0
1578177455.984,26.855,5.859,36.133,70.801,94.238,0
1578177455.988,18.066,6.836,41.504,66.895,131.836,0
1578177455.991,12.695,16.113,25.879,59.082,64.453,0
1578177455.995,16.113,34.668,1.465,55.176,8.789,0
1578177455.999,15.137,27.832,9.277,49.805,55.664,0
1578177456.003,18.066,13.672,36.621,55.664,58.105,0
1578177456.007,24.414,17.578,22.461,57.617,-26.855,0
1578177456.009,11.719,22.461,4.395,51.758,-50.781,0
1578177456.013,-5.371,20.020,15.137,44.922,-26.367,0
1578177456.017,3.906,12.207,27.832,51.270,-35.156,0
1578177456.021,19.531,3.418,21.484,53.711,-46.387,0
1578177456.025,24.414,12.695,11.719,54.688,-54.688,0
1578177456.029,14.648,20.996,12.695,55.176,4.883,0
1578177456.033,5.859,27.832,25.879,59.082,8.789,0
1578177456.036,10.742,35.645,22.949,55.176,-60.059,0
1578177456.040,4.395,19.531,-9.766,42.969,-5.371,0
1578177456.044,-11.719,12.207,-3.906,39.062,43.945,0
1578177456.048,-12.207,12.207,21.973,48.828,-14.160,0
1578177456.052,10.742,15.625,15.137,56.641,-2.441,0
1578177456.055,11.719,13.672,17.578,49.805,59.082,0
1578177456.059,8.301,14.648,20.508,48.828,23.438,0
1578177456.063,20.508,26.367,34.668,60.547,-15.625,0
1578177456.067,22.461,23.438,32.227,63.477,-25.879,0
1578177456.071,12.207,17.578,8.789,53.711,-29.785,0
1578177456.075,20.996,20.508,5.371,49.805,-43.457,0
1578177456.079,26.855,17.578,27.344,41.992,-41.504,0
1578177456.082,9.277,-3.418,26.855,45.410,22.461,0
1578177456.086,4.395,-0.488,1.465,49.316,83.496,0
1578177456.090,-5.371,21.973,16.113,42.969,5.859,0
1578177456.094,-5.371,11.230,24.414,38.574,-62.500,0
1578177456.098,11.719,17.578,26.367,51.758,8.301,0
1578177456.099,15.625,32.227,34.180,68.359,47.852,0
1578177456.103,5.371,28.320,14.648,59.082,-43.457,0
1578177456.107,3.418,26.367,13.672,52.734,-28.809,0
1578177456.111,16.113,3.418,34.668,53.223,52.734,0
1578177456.115,17.578,-14.160,35.645,58.105,48.828,0
1578177456.119,10.742,-0.488,16.602,57.617,44.434,0
1578177456.123,37.598,24.414,26.855,61.035,6.836,0
1578177456.126,32.715,30.762,49.316,61.035,45.410,0
1578177456.130,-6.348,23.438,37.598,43.945,62.500,0
1578177456.134,-4.883,24.414,18.066,37.598,-28.320,0
1578177456.138,8.301,18.555,4.395,42.480,-4.883,0
1578177456.142,18.555,17.090,12.207,51.758,58.594,0
1578177456.145,18.066,15.137,30.762,42.480,23.438,0
1578177456.149,3.418,-3.906,17.578,29.785,0.000,0
1578177456.153,8.301,-7.812,3.906,36.621,4.395,0
1578177456.157,3.418,-1.465,17.578,43.945,-9.766,0
1578177456.161,-4.883,10.742,39.062,51.758,63.965,0
1578177456.165,-1.953,17.578,25.879,49.316,113.281,0
1578177456.169,-0.488,16.602,-13.184,34.668,51.758,0
1578177456.172,5.371,4.883,-20.508,30.273,-5.859,0
1578177456.176,13.184,5.859,24.902,41.504,20.508,0
1578177456.180,15.137,22.949,41.504,50.293,101.074,0
1578177456.184,5.859,22.461,6.348,46.875,18.555,0
1578177456.188,-4.395,7.324,0.488,39.551,36.621,0
1578177456.190,-10.254,7.324,28.809,41.504,92.773,0
1578177456.194,0.488,17.578,30.762,50.293,10.742,0
1578177456.198,3.418,20.020,10.254,51.758,39.062,0
1578177456.202,12.695,30.273,14.648,56.641,64.453,0
1578177456.206,15.137,21.973,25.879,54.688,70.801,0
1578177456.210,18.066,7.812,18.066,52.246,78.125,0
1578177456.214,21.973,17.090,1.465,44.922,36.621,0
1578177456.217,28.320,41.992,17.578,47.852,57.617,0
1578177456.221,27.344,33.203,40.527,51.758,64.453,0
1578177456.225,6.836,10.254,20.508,35.156,37.598,0
1578177456.229,0.977,18.066,2.930,37.109,62.988,0
1578177456.233,3.906,20.020,1.953,42.480,46.875,0
1578177456.234,14.160,7.324,14.160,46.387,1.953,0
1578177456.238,12.695,9.766,21.973,61.523,-13.672,0
1578177456.242,3.906,17.578,20.020,53.223,57.129,0
1578177456.246,-4.395,6.348,5.371,39.551,28.320,0
1578177456.250,2.930,16.602,9.277,57.617,-48.340,0
1578177456.254,19.043,38.086,19.043,66.895,39.062,0
1578177456.258,3.906,15.137,-5.371,40.527,58.105,0
1578177456.261,-6.836,0.977,-7.324,30.273,-5.371,0
1578177456.265,0.977,13.672,0.488,41.016,-15.137,0
1578177456.269,-1.953,19.531,5.371,43.945,44.434,0
1578177456.273,1.465,23.438,17.578,51.758,36.621,0
1578177456.277,4.883,18.555,10.742,58.105,-8.789,0
1578177456.294,22.461,21.484,7.812,65.918,-4.883,0
1578177456.298,37.109,35.156,12.207,62.500,-11.719,0
1578177456.302,23.926,27.832,30.273,65.918,-0.977,0
1578177456.306,24.902,33.203,35.645,77.637,8.301,0
1578177456.310,14.160,31.250,3.906,62.988,-14.160,0
1578177456.314,-3.906,10.254,1.465,47.852,63.477,0
1578177456.318,-4.883,6.348,20.996,46.875,74.707,0
1578177456.321,8.789,13.672,32.227,49.316,-11.719,0
1578177456.325,14.160,16.113,27.832,51.758,11.230,0
1578177456.329,14.160,10.742,2.930,45.410,96.680,0
1578177456.333,6.836,11.719,13.672,45.410,134.766,0
1578177456.337,11.230,21.484,34.180,56.152,80.078,0
1578177456.339,23.926,22.949,13.184,60.547,-1.465,0
1578177456.343,21.973,25.879,9.766,67.383,21.484,0
1578177456.347,20.508,31.250,28.320,69.336,29.785,0
1578177456.351,14.160,12.207,31.738,55.176,-7.324,0
1578177456.355,2.441,-2.441,7.324,43.945,2.441,0
1578177456.359,2.930,7.324,-3.906,46.875,-11.719,0
1578177456.363,7.812,15.625,14.648,55.176,3.418,0
1578177456.366,-2.441,14.648,29.297,52.246,-27.832,0
1578177456.370,-4.883,15.137,14.648,45.898,8.301,0
1578177456.374,12.207,25.391,-3.906,46.875,56.641,0
1578177456.378,13.184,27.832,23.438,54.688,-15.625,0
1578177456.382,8.789,19.531,43.945,67.383,19.531,0
1578177456.384,11.230,23.438,28.320,62.500,28.320,0
1578177456.388,7.812,26.367,11.230,52.734,-1.465,0
1578177456.392,6.836,12.695,6.348,53.223,-22.461,0
1578177456.396,2.930,13.672,9.766,44.434,3.906,0
1578177456.400,1.953,7.812,11.230,33.203,24.902,0
1578177456.404,10.742,-2.441,1.465,33.203,12.207,0
1578177456.408,4.395,5.859,-0.488,39.062,50.781,0
1578177456.411,1.953,17.090,22.461,49.316,17.090,0
1578177456.415,-0.977,26.367,29.785,46.875,20.508,0
1578177456.419,7.812,24.902,25.391,43.945,67.383,0
1578177456.423,19.531,27.832,23.926,50.293,19.531,0
1578177456.427,20.020,20.996,11.230,54.199,-40.527,0
1578177456.429,13.672,9.277,24.902,56.641,-26.855,0
1578177456.433,-3.906,17.578,37.109,43.457,44.434,0
1578177456.437,-6.836,13.672,15.137,42.480,36.133,0
1578177456.441,2.441,5.371,-1.953,46.875,6.348,0
1578177456.445,6.348,20.508,21.973,45.410,-10.742,0
1578177456.449,5.859,20.996,34.668,46.875,20.020,2
1578177456.453,8.301,4.395,23.438,47.852,56.152,0
1578177456.456,16.602,5.859,11.230,54.688,109.863,0
1578177456.460,18.066,23.438,2.441,46.387,87.891,0
1578177456.464,1.953,28.809,30.762,41.504,22.461,0
1578177456.468,4.395,21.973,32.227,45.898,-23.926,0
1578177456.472,6.836,18.555,21.484,48.828,15.625,0
1578177456.474,8.789,21.973,36.133,61.523,112.305,0
1578177456.478,12.695,27.832,38.086,65.430,88.867,0
1578177456.482,2.930,23.438,18.066,54.199,95.703,0
1578177456.486,16.113,12.207,2.930,41.992,95.703,0
1578177456.490,15.625,20.996,5.859,46.875,93.262,0
1578177456.494,0.977,26.367,13.184,57.129,66.406,0
1578177456.498,9.277,33.203,30.273,58.105,65.918,0
1578177456.501,6.348,37.598,15.137,38.574,97.656,0
1578177456.505,-16.602,15.625,15.625,28.809,40.527,0
1578177456.509,-21.973,14.160,45.898,38.086,48.340,0
1578177456.513,-3.906,14.160,41.992,45.898,93.262,0
1578177456.517,-1.953,15.625,18.066,50.781,82.520,0
1578177456.519,3.418,17.578,4.883,51.270,55.176,0
1578177456.523,0.000,6.348,19.043,53.223,26.367,0
1578177456.527,10.254,11.719,23.926,61.035,50.781,0
1578177456.531,21.973,19.043,24.902,62.012,79.102,0
1578177456.535,11.230,32.227,22.461,54.199,119.629,0
1578177456.539,11.719,36.621,20.508,59.570,76.660,0
1578177456.543,14.648,14.648,26.855,64.941,54.199,0
1578177456.546,18.066,18.066,10.254,50.781,82.031,0
1578177456.550,13.184,24.414,15.137,43.457,75.195,0
1578177456.554,0.977,14.160,20.508,49.316,24.414,0
1578177456.558,4.395,9.766,19.043,53.223,-58.105,0
1578177456.562,22.461,5.371,33.691,59.082,-13.672,0
1578177456.564,12.695,8.789,20.020,63.965,13.672,0
1578177456.568,12.207,22.461,2.441,56.641,-16.113,0
1578177456.572,22.949,39.551,9.277,54.688,-53.711,0
1578177456.576,14.648,36.621,18.066,56.152,-79.590,0
1578177456.580,8.301,17.090,16.113,49.316,-5.859,0
1578177456.584,1.953,16.113,7.324,50.781,11.719,0
1578177456.588,-8.789,8.301,-0.488,38.574,-5.371,0
1578177456.591,-8.789,-3.906,15.137,30.273,60.547,0
1578177456.595,10.742,5.371,42.969,51.758,37.109,0
1578177456.599,28.809,26.367,28.320,57.617,-12.207,0
1578177456.603,28.809,30.273,14.160,47.363,-53.711,0
1578177456.607,22.461,43.457,37.109,59.082,-49.805,0
1578177456.609,17.578,39.551,48.340,67.871,6.348,0
1578177456.613,2.441,8.789,6.836,41.504,0.000,0
1578177456.617,16.113,5.371,-1.465,39.062,-1.953,0
1578177456.621,20.508,8.789,34.180,67.383,-60.059,0
1578177456.625,16.113,6.348,38.086,74.219,-40.039,0
1578177456.629,26.367,23.926,5.859,64.453,45.898,0
1578177456.633,23.926,29.785,-10.254,63.477,7.812,0
1578177456.636,23.438,19.531,22.949,67.871,13.672,0
1578177456.640,35.156,28.320,39.551,74.707,31.738,0
1578177456.644,46.387,32.715,20.508,70.312,-44.922,0
1578177456.648,32.715,21.484,21.484,67.871,-22.461,0
1578177456.652,10.742,15.137,25.879,63.477,23.926,0
1578177456.670,18.555,20.508,15.625,53.711,-31.738,0
1578177456.674,15.625,26.367,8.789,58.594,-47.363,0
1578177456.678,10.742,37.109,13.184,65.430,14.648,0
1578177456.682,16.602,33.691,17.090,61.523,42.480,0
1578177456.686,12.695,21.973,19.043,57.617,60.547,0
1578177456.690,10.742,26.855,21.484,60.547,3.418,0
1578177456.694,12.207,31.738,23.438,62.012,-19.531,0
1578177456.697,16.113,30.762,25.879,65.430,-15.625,0
1578177456.701,20.020,36.621,39.062,64.453,11.230,0
1578177456.705,16.113,32.715,20.020,54.199,46.875,0
1578177456.709,18.555,33.203,14.648,48.340,22.461,0
1578177456.713,19.043,9.277,27.832,50.293,20.508,0
1578177456.715,10.254,-7.324,19.043,55.176,-4.883,0
1578177456.719,1.953,26.855,29.297,55.176,48.340,0
1578177456.723,13.672,35.156,38.086,52.246,77.637,0
1578177456.727,20.508,27.832,21.484,53.711,6.348,0
1578177456.731,12.695,32.715,6.836,52.246,11.719,0
1578177456.735,26.367,20.508,17.578,49.316,91.797,0
1578177456.739,23.926,26.367,32.715,55.176,151.855,0
1578177456.742,10.742,36.621,36.133,69.336,97.168,0
1578177456.746,6.836,5.859,11.719,59.570,87.402,0
1578177456.750,-3.906,-0.977,-1.465,41.016,73.242,0
1578177456.754,8.789,26.367,36.133,52.246,62.012,0
1578177456.758,30.273,39.551,34.180,62.500,33.203,0
1578177456.760,28.809,31.738,10.742,56.152,1.953,0
1578177456.764,14.648,34.668,23.438,58.594,40.039,0
1578177456.768,0.000,23.926,31.738,58.105,42.480,0
1578177456.772,10.254,6.836,32.715,58.594,68.848,0
1578177456.776,19.531,20.996,33.691,68.359,126.953,0
1578177456.780,8.301,21.973,25.391,59.570,136.230,0
1578177456.784,6.348,7.812,29.785,45.898,97.656,0
1578177456.787,18.555,17.090,28.809,46.875,126.465,0
1578177456.791,28.320,21.484,-7.812,35.156,123.047,0
1578177456.795,21.973,6.348,2.930,31.250,93.262,0
1578177456.799,5.371,9.766,32.715,46.387,43.457,0
1578177456.803,-6.348,28.809,14.648,49.316,35.156,0
1578177456.805,-7.812,26.855,-3.418,49.316,65.430,0
1578177456.809,7.324,27.344,11.719,58.105,41.992,0
1578177456.813,25.391,37.598,49.316,70.312,78.613,0
1578177456.817,28.320,41.992,47.852,67.871,84.961,0
1578177456.821,14.160,21.484,18.555,51.758,5.859,0
1578177456.825,7.812,0.488,3.418,47.852,1.465,0
1578177456.829,12.695,10.742,25.879,60.059,-18.555,0
1578177456.832,16.113,22.949,32.715,67.383,-17.090,0
1578177456.836,19.043,28.320,4.883,47.852,25.879,0
1578177456.840,17.578,38.086,17.090,48.828,-16.602,0
1578177456.844,3.906,16.602,29.297,57.617,-62.012,0
1578177456.848,-2.441,5.859,39.551,60.059,-19.531,0
1578177456.849,9.766,13.672,40.039,64.453,-19.043,0
1578177456.853,9.766,19.043,21.484,57.617,-54.688,0
1578177456.857,10.742,37.109,19.531,57.617,-35.645,0
1578177456.861,2.441,30.762,31.738,59.082,18.555,0
1578177456.865,-0.488,29.297,32.227,62.500,20.508,0
1578177456.869,6.836,27.344,9.277,64.941,-10.254,0
1578177456.873,2.930,5.371,5.859,60.547,11.719,0
1578177456.876,3.906,8.789,19.531,53.223,44.434,0
1578177456.880,12.207,21.973,41.504,51.758,20.020,0
1578177456.884,20.996,21.973,49.805,57.129,13.672,0
1578177456.888,13.672,15.625,27.344,49.316,61.035,0
1578177456.892,14.160,16.113,26.367,61.035,37.109,0
1578177456.895,14.648,10.254,38.086,59.570,-18.066,0
1578177456.899,-3.418,7.324,36.133,43.457,-40.039,0
1578177456.903,-0.488,30.273,27.344,46.387,11.719,0
1578177456.907,6.348,29.297,35.156,43.945,34.180,0
1578177456.911,0.000,7.324,48.340,49.316,29.297,0
1578177456.915,-2.441,13.184,28.320,58.105,32.227,0
1578177456.919,-2.930,24.902,0.488,50.781,13.672,0
1578177456.922,3.418,24.902,8.301,42.969,32.715,0
1578177456.926,12.207,18.066,42.480,47.852,24.414,0
1578177456.930,4.395,15.137,37.109,47.363,21.973,0
1578177456.934,3.906,15.137,16.113,40.039,43.945,0
1578177456.938,19.531,17.578,16.602,43.457,-1.465,0
1578177456.939,0.488,11.719,31.738,44.434,-20.996,0
1578177456.943,-15.625,-10.254,29.785,27.344,47.363,0
1578177456.947,3.906,5.371,10.254,31.250,85.449,0
1578177456.951,6.348,40.527,10.742,43.945,94.238,0
1578177456.955,-6.348,35.645,20.508,41.016,110.352,0
1578177456.959,3.418,15.625,20.020,40.527,111.816,0
1578177456.963,23.926,21.973,11.230,42.969,95.703,0
1578177456.966,29.297,25.391,13.184,42.480,90.820,0
1578177456.970,14.160,9.766,33.203,44.922,42.480,0
1578177456.974,8.301,8.789,41.504,51.270,49.805,0
1578177456.978,2.441,13.184,21.973,41.992,98.633,0
1578177456.982,-8.301,9.277,11.719,36.621,86.426,0
1578177456.985,-3.906,1.953,8.789,42.480,73.730,0
1578177456.989,4.883,13.672,10.254,49.316,49.316,0
1578177456.993,13.672,21.973,23.926,45.898,40.039,0
1578177456.997,20.020,23.926,7.324,42.969,-45.410,0
1578177457.001,1.465,26.855,1.465,47.363,-61.035,0
1578177457.005,-16.113,14.648,5.859,41.504,-18.555,0
1578177457.009,-9.277,10.254,3.418,39.062,-80.078,0
1578177457.012,0.977,14.648,18.066,44.434,-43.457,0
1578177457.016,11.719,8.301,10.254,46.387,-38.086,0
1578177457.020,13.672,11.230,11.719,45.898,-65.430,0
1578177457.024,19.043,26.367,40.039,64.941,-54.688,0
1578177457.028,20.508,14.648,40.039,70.801,-62.012,0
1578177457.044,7.812,-3.418,3.906,51.758,-56.641,0
1578177457.048,7.812,-0.977,0.000,51.758,11.719,0
1578177457.052,2.930,2.441,20.508,52.734,24.902,0
1578177457.056,-2.930,14.648,22.949,47.852,-21.973,0
1578177457.060,-5.371,21.973,9.277,45.898,-23.926,0
1578177457.064,-2.930,2.441,7.324,43.945,21.484,0
1578177457.068,4.395,7.324,23.926,49.805,12.207,0
1578177457.071,0.977,10.254,27.832,54.199,-9.277,0
1578177457.075,1.465,2.930,20.020,50.781,-15.625,0
1578177457.079,16.602,9.766,6.836,49.805,39.062,0
1578177457.083,17.090,11.230,20.508,50.293,-6.836,0
1578177457.087,15.625,16.602,42.480,45.898,-20.508,0
1578177457.090,7.812,21.973,14.648,34.668,55.176,0
1578177457.094,-5.371,6.836,-3.418,35.645,52.734,0
1578177457.098,0.977,-5.371,21.484,51.270,22.461,0
1578177457.102,3.906,3.418,37.109,50.293,7.324,0
1578177457.106,9.277,13.184,17.578,41.504,15.137,0
1578177457.110,7.812,19.531,-6.836,45.898,14.648,0
1578177457.114,10.254,25.879,10.254,49.805,21.973,0
1578177457.117,20.508,37.598,38.086,60.059,59.570,0
1578177457.121,3.418,19.043,16.113,56.641,41.992,0
1578177457.125,-9.277,-4.883,-17.090,35.645,3.906,0
1578177457.129,-2.441,-3.418,0.977,30.273,20.996,0
1578177457.133,-4.395,-7.324,16.113,39.062,-5.371,0
1578177457.135,0.488,10.254,21.973,43.457,-17.578,0
1578177457.139,14.648,20.508,24.902,50.293,24.414,0
1578177457.143,23.438,15.137,24.414,55.664,34.180,0
1578177457.147,23.438,27.344,31.738,55.664,7.324,0
1578177457.151,7.324,30.762,38.086,48.340,-16.113,0
1578177457.155,-10.742,27.344,20.508,42.480,18.555,0
1578177457.159,-11.719,29.785,-0.977,37.109,35.156,0
1578177457.162,0.977,21.973,9.277,38.574,-8.301,0
1578177457.166,16.602,11.230,19.531,49.805,45.410,0
1578177457.170,21.973,33.203,13.184,44.922,81.543,0
1578177457.174,35.156,43.945,8.301,44.434,9.766,0
1578177457.178,28.320,7.812,10.742,55.664,-2.930,0
1578177457.179,-0.488,0.977,30.762,61.523,47.852,0
1578177457.183,11.230,16.113,39.062,49.316,66.406,0
1578177457.187,20.508,29.297,19.531,41.992,51.758,0
1578177457.191,16.602,36.133,-4.395,42.969,9.277,0
1578177457.195,19.531,20.996,2.441,48.828,28.320,0
1578177457.199,6.836,5.371,12.695,48.828,33.691,0
1578177457.203,-0.488,11.719,3.418,43.457,11.230,0
1578177457.206,2.930,27.344,-8.789,51.270,51.270,0
1578177457.210,18.066,31.738,1.465,50.781,133.789,0
1578177457.214,23.926,37.109,32.715,53.711,69.336,0
1578177457.218,19.531,36.133,29.785,64.453,18.555,0
1578177457.222,16.602,14.160,7.324,59.082,70.801,0
1578177457.225,5.859,8.789,16.602,58.594,110.352,0
1578177457.229,-0.977,16.602,33.203,58.594,74.219,0
1578177457.233,-2.441,13.184,22.461,47.852,62.988,0
1578177457.237,-0.488,13.672,3.906,45.410,101.562,0
1578177457.241,1.465,23.438,5.859,54.688,78.613,0
1578177457.245,13.672,19.531,22.949,59.082,66.406,0
1578177457.249,14.160,11.230,31.250,57.129,66.895,0
1578177457.252,9.277,15.137,6.348,52.246,98.145,0
1578177457.256,-0.488,29.297,3.418,43.945,90.332,0
1578177457.260,-2.441,18.066,39.062,47.852,20.020,0
1578177457.264,-1.465,7.324,43.945,52.246,41.504,0
1578177457.268,-16.602,4.883,19.043,38.574,76.172,0
1578177457.270,-1.465,12.207,14.648,38.086,53.223,0
1578177457.274,20.996,17.090,33.691,51.270,50.293,0
1578177457.278,16.113,5.859,27.832,47.363,42.969,0
1578177457.282,3.418,17.090,14.648,41.504,27.832,0
1578177457.286,-8.789,33.203,10.742,46.387,-4.883,0
1578177457.290,-9.277,32.227,11.719,41.992,40.039,0
1578177457.294,-9.766,20.020,14.648,38.086,28.809,0
1578177457.297,0.977,21.484,20.020,44.434,28.809,0
1578177457.301,19.043,28.809,25.391,45.898,53.711,0
1578177457.305,14.648,14.160,14.160,52.734,9.766,0
1578177457.309,10.254,7.324,18.066,62.988,14.160,0
1578177457.313,3.906,12.695,11.719,56.641,81.543,0
1578177457.314,-7.324,30.273,-6.348,53.711,63.965,0
1578177457.318,-10.742,30.762,-2.930,44.922,20.020,0
1578177457.322,2.441,17.090,7.812,41.992,-28.809,0
1578177457.326,23.926,21.484,28.320,52.734,16.602,0
1578177457.330,10.254,22.461,20.020,45.898,56.152,0
1578177457.334,2.441,17.578,-15.625,41.504,-0.488,0
1578177457.338,16.602,24.902,-19.531,41.992,-63.965,0
1578177457.341,10.742,16.113,0.488,42.480,-36.133,0
1578177457.345,3.906,12.695,20.020,54.199,34.668,0
1578177457.349,0.000,20.508,-0.977,55.664,21.973,0
1578177457.353,1.465,15.625,-9.277,49.805,-38.086,0
1578177457.357,19.043,3.418,15.625,54.688,-14.160,0
1578177457.360,29.297,0.000,22.461,55.176,-13.672,0
1578177457.364,24.414,28.809,22.461,61.523,10.742,0
1578177457.368,19.531,35.156,13.672,66.895,31.250,0
1578177457.372,-1.953,21.484,16.602,39.062,-17.578,0
1578177457.376,-8.301,23.926,23.926,22.461,-15.625,0
1578177457.380,14.648,38.574,2.930,39.551,39.551,0
1578177457.384,14.648,32.715,-13.184,35.645,51.758,0
1578177457.387,-3.418,4.883,8.789,26.367,27.832,0
1578177457.391,10.254,2.441,26.855,35.645,27.344,0
1578177457.395,15.137,23.438,14.648,39.062,-0.488,0
1578177457.399,15.137,24.902,-0.977,41.504,32.227,0
1578177457.403,21.484,17.090,14.160,51.758,45.410,0
1578177457.419,23.438,33.691,39.062,59.570,-2.441,0
1578177457.423,6.836,40.527,22.461,38.574,-15.137,0
1578177457.427,-8.789,21.973,3.906,31.250,-27.832,0
1578177457.431,2.441,5.371,15.625,50.293,27.344,0
1578177457.435,7.324,11.230,30.762,55.176,22.949,0
1578177457.439,14.648,12.207,16.602,53.711,-2.930,0
1578177457.443,21.484,25.391,4.395,53.711,79.590,0
1578177457.446,12.695,31.250,12.695,41.992,70.312,0
1578177457.450,20.508,24.902,36.133,51.270,10.742,0
1578177457.454,23.926,19.043,37.598,58.594,1.953,0
1578177457.458,8.301,19.043,25.391,40.039,57.617,0
1578177457.462,13.184,30.273,26.367,48.340,80.566,0
1578177457.464,-1.465,25.391,15.137,48.828,-7.812,0
1578177457.468,-3.906,19.043,26.855,47.852,25.391,0
1578177457.472,8.301,18.066,38.086,58.105,116.699,0
1578177457.476,7.324,23.438,31.738,56.152,112.793,0
1578177457.480,5.371,35.156,15.625,53.711,26.855,0
1578177457.484,0.977,33.203,10.254,45.898,33.691,0
1578177457.488,23.926,26.367,25.879,51.758,69.336,0
1578177457.491,28.809,32.715,24.902,71.289,-25.879,0
1578177457.495,8.301,18.555,10.254,62.988,-29.785,0
1578177457.499,-2.441,11.719,19.043,51.270,13.184,0
1578177457.503,3.418,34.180,34.668,54.688,5.859,0
1578177457.507,12.695,29.297,6.836,58.594,2.930,0
1578177457.509,10.254,24.414,-7.812,56.641,-23.438,0
1578177457.513,17.578,20.996,15.625,53.223,12.695,0
1578177457.517,30.762,9.277,25.391,57.617,0.000,0
1578177457.521,16.113,15.625,18.555,61.523,3.906,0
1578177457.525,1.953,22.461,7.324,62.988,-7.324,0
1578177457.529,7.324,28.320,11.719,62.988,-44.922,0
1578177457.533,7.812,32.227,45.410,69.824,18.555,0
1578177457.536,3.906,15.625,47.363,66.406,25.391,0
1578177457.540,5.371,0.977,-10.254,49.805,0.000,0
1578177457.544,8.789,11.230,-8.789,47.852,-35.156,2
1578177457.548,20.020,20.996,39.062,54.688,-21.973,0
1578177457.552,5.859,10.742,20.508,46.875,27.344,0
1578177457.554,2.441,17.578,6.836,54.199,49.316,0
1578177457.558,17.578,29.785,28.320,65.918,38.086,0
1578177457.562,13.184,17.090,42.480,58.594,36.133,0
1578177457.566,18.066,16.602,34.180,60.547,60.059,0
1578177457.570,22.461,22.461,13.184,64.453,49.805,0
1578177457.574,18.555,11.230,-0.488,56.152,14.160,0
1578177457.578,20.508,16.602,24.902,54.688,33.203,0
1578177457.581,19.531,12.695,31.250,57.617,15.137,0
1578177457.585,14.648,20.996,8.789,52.246,12.207,0
1578177457.589,22.461,25.391,21.484,50.781,47.852,0
1578177457.593,18.555,4.395,31.250,51.270,8.789,0
1578177457.597,10.742,18.066,40.039,49.316,3.418,0
1578177457.599,5.371,26.855,44.922,56.641,88.379,0
1578177457.603,1.465,13.672,25.391,51.270,113.770,0
1578177457.607,-1.953,16.602,11.719,50.293,69.824,0
1578177457.611,-1.465,19.531,26.367,52.246,69.336,0
1578177457.615,10.742,16.113,27.832,57.129,32.227,0
1578177457.619,19.531,17.578,20.508,65.918,43.457,0
1578177457.623,18.066,23.438,23.926,57.617,87.891,0
1578177457.626,16.113,21.484,15.137,51.758,71.777,0
1578177457.630,20.020,6.348,24.414,51.270,94.238,0
1578177457.634,14.648,11.230,42.969,52.246,110.840,0
1578177457.638,1.465,14.648,25.879,45.898,101.562,0
1578177457.642,1.953,16.602,14.160,38.574,73.242,0
1578177457.644,17.578,20.508,28.320,49.805,24.414,0
1578177457.648,18.555,22.949,30.273,58.594,-3.418,0
1578177457.652,7.812,17.578,12.695,52.246,41.504,0
1578177457.656,8.789,10.254,13.672,52.246,83.984,0
1578177457.660,15.137,16.602,39.551,69.336,58.594,0
1578177457.664,16.602,9.766,36.133,68.359,36.133,0
1578177457.668,10.254,0.000,10.254,56.152,51.758,0
1578177457.671,9.766,-0.488,4.883,51.270,32.715,0
1578177457.675,6.836,9.277,38.574,52.246,57.617,0
1578177457.679,12.695,22.949,38.086,58.594,44.434,0
1578177457.683,23.438,16.602,4.883,55.664,-30.762,0
1578177457.687,22.949,20.996,19.531,60.059,41.992,0
1578177457.689,18.555,23.926,49.805,62.500,80.566,0
1578177457.693,12.695,10.742,40.039,51.758,30.273,0
1578177457.697,6.348,8.301,6.348,45.898,30.273,0
1578177457.701,4.395,10.254,3.906,49.316,50.781,0
1578177457.705,8.301,22.949,17.090,54.688,14.160,0
1578177457.709,21.973,33.691,22.461,61.035,12.207,0
1578177457.713,19.043,21.973,16.113,60.547,87.891,0
1578177457.716,19.531,28.320,3.906,48.340,34.180,0
1578177457.720,21.484,36.133,23.926,52.734,-2.930,0
1578177457.724,11.230,29.785,31.738,64.941,-9.766,0
1578177457.728,7.812,24.902,22.949,54.688,61.035,0
1578177457.732,7.324,23.926,14.648,49.316,66.895,0
1578177457.734,4.883,21.484,16.602,55.176,52.246,0
1578177457.738,-4.883,14.648,11.719,57.617,31.250,0
1578177457.742,10.254,28.320,18.555,63.477,-12.695,0
1578177457.746,23.438,32.715,17.090,60.059,25.391,0
1578177457.750,24.902,25.391,-4.395,46.387,34.668,0
1578177457.754,17.578,24.414,-6.348,43.457,29.297,0
1578177457.758,0.488,12.207,4.883,41.016,103.516,0
1578177457.761,-4.395,-0.977,21.484,45.898,63.965,0
1578177457.765,4.395,18.555,17.090,57.617,-8.789,0
1578177457.769,4.395,27.832,16.602,47.852,63.477,0
1578177457.773,-0.977,20.020,28.809,46.875,36.133,0
1578177457.777,14.648,26.855,26.855,58.105,-36.621,0
1578177457.795,7.812,18.066,0.977,41.016,-68.359,0
1578177457.799,1.953,12.695,-0.977,36.133,8.789,0
1578177457.803,12.207,20.508,23.926,46.875,44.922,0
1578177457.807,7.812,20.020,28.809,49.316,-6.348,0
1578177457.811,4.883,19.043,16.113,56.641,-17.578,0
1578177457.815,8.789,10.254,-0.488,57.617,-76.172,0
1578177457.819,10.254,12.695,17.090,49.805,-46.875,0
1578177457.822,5.859,26.367,39.551,46.387,-6.836,0
1578177457.826,-0.977,16.602,13.672,39.551,55.664,0
1578177457.830,8.789,3.906,-5.859,36.621,122.559,0
1578177457.834,6.836,7.324,10.742,41.504,38.086,0
1578177457.838,-2.441,17.578,35.645,48.340,31.250,0
1578177457.840,7.812,35.645,35.645,62.988,95.703,0
1578177457.844,14.648,16.113,20.508,69.336,65.918,0
1578177457.848,24.414,1.953,30.762,60.547,83.984,0
1578177457.852,17.090,20.996,36.133,54.688,105.957,0
1578177457.856,8.301,20.020,21.973,59.082,44.434,0
1578177457.860,0.000,8.789,-6.836,51.758,35.156,0
1578177457.864,-9.277,13.672,-3.418,52.246,42.480,0
1578177457.867,-9.277,20.996,23.438,58.105,-41.016,0
1578177457.871,0.488,8.789,15.625,45.410,-36.621,0
1578177457.875,21.484,20.020,1.953,44.434,33.203,0
1578177457.879,13.672,21.973,18.555,47.363,-11.719,0
1578177457.883,1.465,13.184,20.996,47.852,-64.941,0
1578177457.885,0.000,21.973,20.508,49.805,-63.965,0
1578177457.889,9.766,20.508,19.531,51.270,-20.996,0
1578177457.893,12.695,23.438,8.301,51.758,-25.391,0
1578177457.897,-7.324,21.484,14.160,39.551,-48.828,0
1578177457.901,-5.371,3.906,20.508,38.086,48.340,0
1578177457.905,2.930,10.254,10.742,41.504,147.949,0
1578177457.909,5.859,23.926,5.371,49.805,93.750,0
1578177457.912,27.344,6.836,25.391,65.430,13.184,0
1578177457.916,25.879,6.348,27.344,51.758,75.195,0
1578177457.920,3.418,21.973,17.578,38.086,42.969,0
1578177457.924,-4.883,14.648,19.043,43.457,4.395,0
1578177457.928,-10.254,15.137,15.137,48.828,48.828,0
1578177457.929,2.441,19.531,21.973,55.176,29.785,0
1578177457.933,16.602,15.137,35.645,55.664,42.480,0
1578177457.937,28.320,6.836,16.113,45.410,55.176,0
1578177457.941,15.625,14.648,-2.930,34.180,58.105,0
1578177457.945,-3.418,33.691,18.555,42.480,74.219,0
1578177457.949,9.277,20.996,33.203,62.012,76.172,0
1578177457.953,20.996,3.906,36.133,65.430,91.309,0
1578177457.956,19.531,1.465,12.695,52.734,108.398,0
1578177457.960,-8.789,4.883,-3.906,38.086,40.527,0
1578177457.964,-24.414,16.113,30.273,40.527,27.344,0
1578177457.968,2.441,28.320,32.715,44.434,34.180,0
1578177457.972,16.602,28.320,10.254,44.434,-1.953,0
1578177457.974,13.672,20.996,17.090,51.270,-27.344,0
1578177457.978,16.113,21.973,41.016,57.129,-1.465,0
1578177457.982,21.484,21.973,38.086,56.152,5.859,0
1578177457.986,25.391,20.508,15.625,48.828,-20.508,0
1578177457.990,20.020,19.043,15.137,48.340,-26.855,0
1578177457.994,3.906,20.508,30.762,58.594,-28.809,0
1578177457.998,1.953,28.809,35.156,63.477,14.160,0
1578177458.001,11.719,23.438,6.348,51.270,36.621,0
1578177458.005,19.531,14.160,2.930,44.434,11.719,0
1578177458.009,21.484,16.113,32.227,49.805,-20.996,0
1578177458.013,17.578,29.785,33.203,54.688,10.742,0
1578177458.017,15.625,26.855,16.602,53.223,-15.137,0
1578177458.019,28.320,15.625,21.484,57.617,-18.066,0
1578177458.023,21.484,15.625,31.738,60.547,0.977,0
1578177458.027,13.184,22.461,24.902,52.246,34.180,0
1578177458.031,28.809,32.715,19.531,53.711,46.387,0
1578177458.035,26.367,32.715,22.949,59.570,-29.785,0
1578177458.039,27.344,38.574,37.109,66.895,-8.789,0
1578177458.043,16.602,30.762,26.855,62.988,-27.344,0
1578177458.046,-10.742,11.719,5.859,41.016,10.742,0
1578177458.050,4.883,14.160,18.066,47.363,94.238,0
1578177458.054,16.113,36.621,21.973,65.918,28.320,0
1578177458.058,9.277,35.645,24.902,51.270,-18.555,0
1578177458.062,13.672,16.113,25.391,41.992,5.371,0
1578177458.064,17.090,23.926,21.484,47.363,49.805,0
1578177458.068,20.020,29.785,21.484,51.270,53.711,0
1578177458.072,20.508,28.320,30.762,58.105,1.465,0
1578177458.076,23.926,29.785,50.781,63.965,-10.254,0
1578177458.080,15.137,8.789,30.762,54.199,-1.953,0
1578177458.084,4.395,-1.953,-0.977,41.992,24.902,0
1578177458.088,0.977,15.625,-2.441,39.551,82.031,0
1578177458.091,-2.441,18.555,15.625,45.410,44.922,0
1578177458.095,0.977,11.230,32.227,46.875,-9.277,0
1578177458.099,-4.395,12.695,11.230,40.039,22.461,0
1578177458.103,-2.441,16.602,13.672,44.922,87.891,0
1578177458.107,19.043,23.926,41.504,59.570,123.535,0
1578177458.109,30.273,19.043,51.270,66.406,104.980,0
1578177458.113,29.297,2.441,34.180,66.406,79.590,0
1578177458.117,14.160,12.695,15.137,52.246,77.637,0
1578177458.121,-5.371,20.020,26.367,45.410,107.910,0
1578177458.125,0.977,14.160,30.762,51.270,90.820,0
1578177458.129,15.625,10.742,6.836,54.199,73.730,0
1578177458.133,9.277,5.859,-6.836,47.363,101.562,0
1578177458.136,-1.465,5.371,23.926,46.875,72.266,0
1578177458.140,6.836,9.766,46.387,60.059,29.785,0
1578177458.144,1.465,8.789,27.832,57.129,54.688,0
1578177458.148,1.953,20.020,10.742,47.363,-22.949,0
1578177458.152,5.859,33.203,34.668,57.617,-107.910,0
1578177458.169,5.859,24.414,41.992,59.082,-51.758,0
1578177458.173,4.395,6.348,9.277,34.668,-55.176,0
1578177458.177,-5.371,-1.953,-2.441,32.227,0.977,0
1578177458.181,4.883,12.695,-1.953,42.969,-38.574,0
1578177458.185,0.977,16.113,20.020,43.457,-63.965,0
1578177458.189,-0.488,11.230,17.090,53.711,48.340,0
1578177458.193,0.977,12.207,3.906,42.969,23.926,0
1578177458.196,12.695,25.391,25.879,33.691,0.977,0
1578177458.200,29.785,38.574,44.922,57.617,-9.277,0
1578177458.204,19.043,27.832,45.410,54.199,1.953,0
1578177458.208,0.488,15.625,26.855,34.668,38.574,0
1578177458.212,-3.418,7.324,10.742,37.109,-20.508,0
1578177458.214,-16.113,0.488,12.695,35.645,-4.883,0
1578177458.218,-20.508,1.953,19.531,25.391,54.688,0
1578177458.222,4.883,10.254,17.578,43.457,25.879,0
1578177458.226,27.344,26.855,20.020,69.336,-31.738,0
1578177458.230,27.832,29.297,28.320,64.941,31.250,0
1578177458.234,24.902,11.230,32.227,61.035,69.824,0
1578177458.238,44.434,11.230,38.086,71.289,16.602,0
1578177458.241,26.855,21.484,24.414,62.012,4.395,0
1578177458.245,-6.836,18.555,0.000,43.457,27.344,0
1578177458.249,-3.418,20.996,9.766,38.086,35.156,0
1578177458.253,1.953,14.160,33.203,39.062,-27.344,0
1578177458.257,1.953,7.324,28.809,41.992,-2.441,0
1578177458.259,8.789,25.391,24.902,59.082,69.336,0
1578177458.263,11.230,20.996,31.250,67.871,30.762,0
1578177458.267,9.766,15.625,40.039,66.406,1.465,0
1578177458.271,11.230,20.020,19.531,56.641,-39.551,0
1578177458.275,-1.953,8.301,-6.348,29.297,11.230,0
1578177458.279,-10.254,0.488,-2.930,25.391,104.492,0
1578177458.283,-0.488,0.000,22.461,44.922,69.336,0
1578177458.286,8.789,8.301,29.785,46.875,45.898,0
1578177458.290,13.184,8.789,-5.371,40.039,94.727,0
1578177458.294,-16.602,11.230,2.930,49.316,112.793,0
1578177458.298,-10.742,20.020,57.617,54.688,75.684,0
1578177458.302,6.836,16.602,42.969,50.781,73.730,0
1578177458.305,-1.465,18.555,4.395,44.922,62.012,0
1578177458.309,-8.789,9.277,-5.859,30.273,20.508,0
1578177458.313,-11.230,1.465,4.395,24.414,44.922,0
1578177458.317,10.254,11.230,15.625,29.785,89.844,0
1578177458.321,4.395,21.484,18.066,35.156,87.891,0
1578177458.325,-7.324,20.996,9.766,39.062,32.227,0
1578177458.329,0.488,15.137,22.461,42.969,21.973,0
1578177458.332,7.812,18.066,39.551,46.387,10.254,0
1578177458.336,2.930,20.996,20.020,36.133,-2.930,0
1578177458.340,4.883,17.090,15.625,38.086,-76.660,0
1578177458.344,18.066,22.949,29.785,48.828,-107.422,0
1578177458.348,6.836,20.020,31.250,45.898,13.184,0
1578177458.349,-13.184,9.277,13.672,31.738,41.992,0
1578177458.353,-18.066,17.578,9.766,27.344,15.625,0
1578177458.357,-3.418,28.809,29.785,49.316,44.922,0
1578177458.361,15.625,26.855,42.969,69.336,14.648,0
1578177458.365,11.230,14.160,26.855,59.570,-55.176,0
1578177458.369,3.906,-2.441,-1.953,41.992,7.812,0
1578177458.373,-6.348,5.371,-0.977,34.668,25.879,0
1578177458.376,-3.418,17.578,4.883,34.668,-51.270,0
1578177458.380,14.648,16.602,25.879,48.340,-30.762,0
1578177458.384,15.625,36.621,39.062,51.270,-9.277,0
1578177458.388,3.906,31.738,10.742,40.039,-12.695,0
1578177458.392,1.465,11.719,17.090,47.363,35.156,0
1578177458.394,5.371,16.113,32.227,53.223,11.719,0
1578177458.398,0.488,12.207,15.137,44.434,-15.625,0
1578177458.402,15.137,10.254,-1.465,41.504,24.414,0
1578177458.406,8.789,21.484,-2.441,44.434,44.434,0
1578177458.410,-10.742,10.742,15.137,44.922,44.434,0
1578177458.414,-1.465,13.184,28.809,52.734,74.219,0
1578177458.418,7.324,28.809,9.766,60.059,95.703,0
1578177458.421,0.000,15.137,-2.930,42.969,95.703,0
1578177458.425,-4.883,15.137,28.320,37.598,71.777,0
1578177458.429,12.207,30.273,33.691,55.176,-19.531,0
1578177458.433,19.531,24.414,14.648,51.758,-58.105,0
1578177458.437,9.277,13.184,9.766,33.691,-41.992,0
1578177458.439,2.930,9.766,11.719,27.344,-31.250,0
1578177458.443,10.254,14.648,26.367,47.363,-5.371,0
1578177458.447,17.578,19.043,24.414,62.988,31.250,0
1578177458.451,13.672,5.859,1.465,47.852,24.414,0
1578177458.455,15.137,-1.953,-4.395,37.109,29.297,0
1578177458.459,11.230,8.789,5.371,38.574,41.504,0
1578177458.463,0.000,14.160,-0.488,40.039,101.074,0
1578177458.466,-6.348,10.742,-3.906,48.340,69.336,0
1578177458.470,2.930,20.996,26.367,46.387,19.043,0
1578177458.474,19.043,34.180,37.598,53.223,16.602,0
1578177458.478,17.090,30.273,30.762,70.312,33.203,0
1578177458.482,11.719,12.695,21.973,63.477,83.496,0
1578177458.484,24.902,-6.348,25.879,70.312,87.891,0
1578177458.488,24.414,8.789,28.320,68.848,83.984,0
1578177458.492,4.883,22.461,12.695,46.387,87.402,0
1578177458.496,9.766,15.625,9.277,42.480,81.055,0
1578177458.500,15.137,9.277,8.789,46.875,27.344,0
1578177458.504,12.695,20.020,11.719,61.523,39.062,0
1578177458.508,21.484,23.438,25.879,66.895,75.684,0
1578177458.511,22.461,24.902,30.273,50.293,42.480,0
1578177458.515,18.555,29.785,14.160,51.270,33.203,0
1578177458.519,8.789,10.254,15.625,68.359,58.105,0
1578177458.523,-2.441,0.488,29.785,58.105,93.750,0
1578177458.527,-1.953,4.883,26.367,45.898,51.270,0
1578177458.544,13.672,15.137,19.043,50.293,10.254,0
1578177458.548,23.926,28.320,22.949,54.688,43.457,0
1578177458.552,17.578,10.254,36.133,57.617,74.707,0
1578177458.556,18.066,14.648,43.945,62.012,65.918,0
1578177458.560,14.648,24.902,25.391,61.523,18.555,0
1578177458.564,6.836,5.859,-10.254,43.457,-16.113,0
1578177458.568,3.906,2.930,9.766,43.457,3.906,0
1578177458.571,16.602,9.277,45.410,59.082,54.688,0
1578177458.575,38.574,25.391,23.438,65.918,-13.184,0
1578177458.579,21.484,20.996,13.672,62.012,-41.504,0
1578177458.583,-7.324,4.883,23.438,47.852,-31.738,2
1578177458.587,-5.859,7.324,26.367,54.199,-41.504,0
1578177458.589,2.441,11.230,15.137,63.965,43.457,0
1578177458.593,3.906,2.930,4.883,51.270,99.609,0
1578177458.597,7.324,11.230,26.855,49.316,61.523,0
1578177458.601,10.254,21.484,43.457,51.270,67.383,0
1578177458.605,25.391,15.137,22.949,47.852,82.031,0
1578177458.609,30.762,17.090,7.812,56.152,72.754,0
1578177458.613,20.996,21.973,23.926,62.500,69.336,0
1578177458.616,11.719,12.695,36.621,52.246,88.867,0
1578177458.620,0.000,16.113,16.113,45.898,113.281,0
1578177458.624,7.812,14.160,-1.953,54.688,50.293,0
1578177458.628,17.090,-2.441,20.508,61.523,53.223,0
1578177458.632,14.648,2.441,33.691,61.523,76.172,0
1578177458.634,22.949,14.160,33.691,68.359,13.672,0
1578177458.638,32.227,21.973,35.156,76.660,24.902,0
1578177458.642,12.207,15.625,21.973,60.547,0.977,0
1578177458.646,2.930,5.371,14.160,49.316,-34.668,0
1578177458.650,4.395,0.488,14.648,47.363,-5.859,0
1578177458.654,2.441,13.184,13.184,48.828,51.270,0
1578177458.658,7.812,33.203,14.648,62.988,61.035,0
1578177458.661,-4.883,26.855,16.602,60.059,-20.020,0
1578177458.665,3.906,12.207,9.766,39.062,-1.953,0
1578177458.669,28.320,15.625,30.273,53.711,72.754,0
1578177458.673,21.973,26.855,47.363,67.871,49.316,0
1578177458.677,1.465,23.926,16.602,54.199,6.348,0
1578177458.679,6.836,21.484,27.344,56.152,25.879,0
1578177458.683,3.418,8.301,33.691,51.270,30.273,0
1578177458.687,-1.465,0.977,7.324,47.363,-21.973,0
1578177458.691,13.184,21.973,3.418,62.988,-43.945,0
1578177458.695,14.648,25.391,17.090,62.988,-67.871,0
1578177458.699,13.672,35.156,28.809,51.758,-39.062,0
1578177458.703,15.137,40.527,21.484,56.152,-39.551,0
1578177458.706,17.578,17.090,3.906,62.012,-49.805,0
1578177458.710,18.555,19.531,8.301,58.105,-9.277,0
1578177458.714,28.809,36.133,40.039,57.617,-18.555,0
1578177458.718,29.297,24.902,32.715,62.500,-41.504,0
1578177458.722,23.438,12.207,7.324,60.547,29.297,0
1578177458.724,11.719,15.137,14.160,57.129,21.484,0
1578177458.728,-1.953,34.668,40.527,61.035,2.441,0
1578177458.732,1.465,31.250,23.438,52.246,-49.805,0
1578177458.736,19.531,18.555,3.906,48.828,-70.312,0
1578177458.740,32.715,16.602,14.648,64.453,2.930,0
1578177458.744,24.902,17.090,23.926,69.824,3.418,0
1578177458.748,4.395,13.672,24.414,51.270,-12.207,0
1578177458.751,-7.324,6.836,-0.977,39.551,-2.441,0
1578177458.755,-2.441,16.113,1.953,44.922,-7.812,0
1578177458.759,-8.301,21.484,27.344,44.434,-8.301,0
1578177458.763,3.906,20.508,20.996,46.387,-12.695,0
1578177458.767,21.973,32.715,23.438,65.430,-32.227,0
1578177458.770,30.273,26.855,21.973,64.941,-25.391,0
1578177458.774,23.926,11.230,19.043,57.617,-26.367,0
1578177458.778,20.508,17.578,30.762,64.941,25.879,0
1578177458.782,28.809,17.578,33.203,64.941,61.523,0
1578177458.786,33.691,16.113,22.949,64.941,20.020,0
1578177458.790,25.391,14.160,11.719,59.082,-10.742,0
1578177458.794,7.812,20.996,16.602,55.176,-15.625,0
1578177458.797,1.953,29.297,6.836,41.992,-8.301,0
1578177458.801,6.836,26.855,16.602,39.551,20.020,0
1578177458.805,7.812,31.250,24.902,51.758,49.805,0
1578177458.809,14.160,22.949,17.578,50.781,11.230,0
1578177458.813,5.859,8.789,21.484,43.457,19.043,0
1578177458.814,-5.859,13.672,22.949,44.434,55.176,0
1578177458.818,9.766,13.184,14.648,59.570,45.410,0
1578177458.822,12.695,12.207,21.484,62.012,70.801,0
1578177458.826,15.137,26.367,41.992,53.711,51.758,0
1578177458.830,2.441,20.996,26.855,46.387,18.555,0
1578177458.834,-10.742,6.836,4.883,49.805,41.992,0
1578177458.838,6.348,22.461,10.742,44.922,84.961,0
1578177458.841,14.648,32.227,32.227,45.898,58.594,0
1578177458.845,9.766,11.230,38.086,45.898,12.695,0
1578177458.849,7.324,8.301,20.020,47.852,-0.977,0
1578177458.853,3.906,14.160,24.902,55.664,79.590,0
1578177458.857,-1.953,5.371,39.551,54.688,131.836,0
1578177458.859,-1.953,9.766,37.109,51.270,90.820,0
1578177458.863,10.742,25.391,15.625,57.129,53.223,0
1578177458.867,7.324,27.344,10.254,58.105,32.715,0
1578177458.871,-10.254,15.137,26.855,38.086,85.938,0
1578177458.875,-1.953,6.836,19.531,33.691,101.074,0
1578177458.879,14.160,9.766,6.348,46.875,146.973,0
1578177458.883,19.043,7.324,0.000,49.316,116.211,0
1578177458.886,11.719,7.812,21.973,46.387,25.879,0
1578177458.890,7.812,21.973,38.574,47.363,53.711,0
1578177458.894,3.418,27.344,17.090,43.945,63.477,0
1578177458.898,-4.395,11.719,4.883,38.086,83.984,0
1578177458.902,0.977,14.160,19.043,44.434,59.082,0
1578177458.919,0.977,28.320,35.156,47.852,33.203,0
1578177458.923,3.418,33.203,17.090,52.246,-25.391,0
1578177458.927,19.043,34.668,-2.441,54.199,-36.621,0
1578177458.931,16.602,15.625,13.672,52.246,-38.574,0
1578177458.935,6.836,13.672,37.598,59.570,-33.203,0
1578177458.939,-7.812,17.090,0.488,31.250,-27.832,0
1578177458.943,3.906,12.207,-5.371,24.414,-4.883,0
1578177458.946,18.066,22.461,20.020,39.551,56.641,0
1578177458.950,-2.930,21.973,16.113,39.551,40.527,0
1578177458.954,-5.371,24.414,35.156,43.945,23.926,0
1578177458.958,16.602,28.320,31.738,44.922,33.691,0
1578177458.962,15.137,15.137,18.555,47.363,52.246,0
1578177458.965,-5.859,9.766,10.742,54.199,-30.762,0
1578177458.969,6.836,10.254,24.902,61.523,-2.441,0
1578177458.973,13.672,25.879,36.621,58.105,13.184,0
1578177458.977,-1.953,29.785,13.184,41.016,-22.461,0
1578177458.981,1.953,10.254,4.883,38.574,36.621,0
1578177458.985,9.277,7.324,13.672,52.734,18.066,0
1578177458.989,1.953,20.020,18.555,45.898,-17.090,0
1578177458.992,0.977,16.113,27.344,50.781,-13.184,0
1578177458.996,14.160,5.371,23.438,57.617,16.602,0
1578177459.000,11.719,8.789,17.578,41.504,68.848,0
1578177459.004,2.930,4.395,34.668,44.434,81.055,0
1578177459.008,5.371,3.418,18.555,47.852,40.039,0
1578177459.009,12.695,24.902,13.672,55.176,-2.930,0
1578177459.013,17.090,40.039,36.133,61.035,7.324,0
1578177459.017,18.555,19.043,41.016,53.223,30.762,0
1578177459.021,14.648,7.812,26.367,46.387,31.738,0
1578177459.025,-4.395,22.461,5.371,36.621,-35.645,0
1578177459.029,0.977,20.996,12.207,44.434,-3.418,0
1578177459.033,8.301,12.695,32.227,40.527,82.520,0
1578177459.036,-17.578,0.488,16.113,23.438,47.852,0
1578177459.040,3.418,-2.930,-15.137,31.250,76.172,0
1578177459.044,24.414,9.277,5.371,40.039,89.355,0
1578177459.048,-3.906,9.277,37.109,33.203,-4.395,0
1578177459.052,-9.277,20.508,27.344,38.574,-5.371,0
1578177459.054,4.395,43.457,20.020,40.039,46.387,0
1578177459.058,15.137,28.809,20.020,29.785,94.238,0
1578177459.062,11.719,17.578,26.367,37.598,90.332,0
1578177459.066,-2.930,12.695,22.461,38.574,56.641,0
1578177459.070,2.441,2.441,-5.859,33.691,3.906,0
1578177459.074,14.648,1.953,-15.625,41.504,-32.715,0
1578177459.078,2.441,12.207,12.695,49.805,27.832,0
1578177459.081,0.488,29.297,21.973,43.945,85.938,0
1578177459.085,7.812,23.926,-1.465,33.691,59.082,0
1578177459.089,-0.488,21.484,15.137,44.922,78.613,0
1578177459.093,0.488,34.668,30.762,60.059,61.035,0
1578177459.097,4.883,23.926,28.320,54.688,80.566,0
1578177459.099,13.184,25.879,34.668,61.523,84.473,0
1578177459.103,26.367,38.086,34.668,67.871,22.949,0
1578177459.107,18.555,32.715,15.625,49.316,15.137,0
1578177459.111,-9.766,38.574,14.160,33.691,57.617,0
1578177459.115,-12.207,35.645,21.973,32.227,61.523,0
1578177459.119,-5.371,20.508,1.465,36.621,27.832,0
1578177459.123,3.906,15.625,3.418,47.363,35.645,0
1578177459.126,13.672,25.879,12.695,48.828,70.801,0
1578177459.130,17.578,37.598,27.832,56.152,114.746,0
1578177459.134,15.625,26.855,36.133,73.242,71.777,0
1578177459.138,11.230,8.789,8.789,60.059,4.883,0
1578177459.142,18.555,16.113,19.531,56.152,35.156,0
1578177459.145,35.645,40.039,41.992,67.871,58.594,0
1578177459.149,22.461,34.180,24.414,57.617,34.180,0
1578177459.153,-1.953,11.719,-9.277,43.945,22.949,0
1578177459.157,-16.602,2.441,-8.789,37.109,-1.465,0
1578177459.161,-1.465,-4.395,19.043,43.945,31.250,0
1578177459.165,6.836,-2.930,10.254,45.410,68.359,0
1578177459.169,0.000,10.254,-3.418,47.363,45.898,0
1578177459.172,15.137,12.695,0.977,56.641,35.645,0
1578177459.176,22.461,17.578,25.391,54.199,44.922,0
1578177459.180,18.066,27.344,34.180,42.969,34.180,0
1578177459.184,9.277,22.461,13.672,38.574,63.477,0
1578177459.188,15.137,28.809,13.672,44.922,72.754,0
1578177459.189,13.184,32.715,28.809,49.805,12.207,0
1578177459.193,7.324,17.578,20.996,56.152,-44.922,0
1578177459.197,1.465,3.418,8.789,54.199,-31.738,0
1578177459.201,2.930,-5.371,2.441,41.016,-22.949,0
1578177459.205,3.418,1.465,8.789,44.922,-45.898,0
1578177459.209,2.930,17.578,31.738,68.359,15.137,0
1578177459.213,8.789,22.461,23.926,68.848,54.688,0
1578177459.216,-1.465,8.301,13.184,51.758,8.301,0
1578177459.220,9.277,9.277,34.180,49.805,-14.648,0
1578177459.224,17.090,29.785,37.598,63.477,-40.527,0
1578177459.228,4.395,20.996,25.391,62.012,-49.316,0
1578177459.232,15.625,15.625,10.742,46.387,12.207,0
1578177459.235,8.789,31.250,12.207,51.270,5.371,0
1578177459.239,-8.789,14.160,22.461,55.664,-41.016,0
1578177459.243,6.836,7.812,24.414,54.199,-31.738,0
1578177459.247,15.625,24.414,25.879,49.805,7.812,0
1578177459.251,13.184,26.367,20.508,50.293,46.387,0
1578177459.255,7.812,21.484,11.719,50.293,19.043,0
1578177459.259,-1.953,18.066,12.207,42.480,59.082,0
1578177459.262,10.742,27.832,36.621,59.570,106.934,0
1578177459.266,27.832,17.090,38.574,69.824,89.844,0
1578177459.270,17.578,6.348,22.461,61.035,95.703,0
1578177459.274,3.906,19.531,26.855,52.246,61.035,0
1578177459.278,9.766,31.250,22.461,41.992,58.594,0
1578177459.294,14.160,35.645,4.883,43.945,73.242,0
1578177459.298,-0.488,19.531,3.418,45.410,42.969,0
1578177459.302,-3.418,12.207,21.973,47.852,72.266,0
1578177459.306,14.648,9.766,27.832,52.246,45.410,0
1578177459.310,13.184,1.465,3.418,49.316,17.578,0
1578177459.314,9.766,12.695,-13.184,51.270,53.223,0
1578177459.318,15.625,24.414,16.602,59.082,78.125,0
1578177459.321,9.766,16.113,39.062,54.688,47.363,0
1578177459.325,8.301,4.395,4.883,41.016,-2.930,0
1578177459.329,30.273,17.578,-6.348,41.992,32.227,0
1578177459.333,25.879,23.926,18.555,52.246,78.125,0
1578177459.337,7.812,13.672,33.203,64.941,54.688,0
1578177459.339,14.648,8.789,22.461,65.918,8.301,0
1578177459.343,20.508,18.066,3.418,55.664,25.391,0
1578177459.347,19.531,31.250,7.324,55.176,-38.086,0
1578177459.351,10.254,25.391,20.996,65.430,-53.711,0
1578177459.355,13.672,20.020,10.742,57.129,-37.109,0
1578177459.359,18.066,12.207,-6.836,41.016,-26.367,0
1578177459.363,12.207,15.625,-7.324,38.086,-43.945,0
1578177459.366,6.836,17.090,23.926,39.551,-62.012,0
1578177459.370,0.977,9.766,28.809,43.945,2.930,0
1578177459.374,5.859,22.461,-4.883,39.551,35.156,0
1578177459.378,13.184,45.898,17.090,49.316,15.625,0
1578177459.382,11.719,48.340,43.457,64.941,-14.160,0
1578177459.385,5.371,14.648,34.180,59.082,10.254,0
1578177459.389,3.418,8.789,23.926,52.246,3.418,0
1578177459.393,7.324,19.043,27.344,57.617,-18.555,0
1578177459.397,15.625,16.113,35.645,57.129,43.457,0
1578177459.401,14.648,23.438,28.320,49.316,46.875,0
1578177459.405,-1.953,20.508,3.418,46.875,-15.137,0
1578177459.409,4.883,18.066,0.977,46.387,-2.930,0
1578177459.412,11.719,38.574,23.926,43.457,-18.066,0
1578177459.416,17.578,42.969,28.320,54.199,10.254,0
1578177459.420,10.742,23.438,21.973,44.434,83.008,0
1578177459.424,17.090,16.113,27.832,50.293,32.227,0
1578177459.428,23.438,14.648,20.996,60.059,-30.273,0
1578177459.429,12.207,13.672,21.973,44.434,9.766,0
1578177459.433,7.324,20.996,27.832,52.246,28.809,0
1578177459.437,5.859,34.668,6.836,51.758,-16.113,0
1578177459.441,9.277,32.715,-2.441,41.504,-15.625,0
1578177459.445,8.789,23.438,19.043,43.457,40.039,0
1578177459.449,11.719,24.902,30.273,54.199,62.988,0
1578177459.453,17.578,18.066,20.020,61.523,9.277,0
1578177459.456,4.395,6.348,-2.930,49.316,-8.301,0
1578177459.460,1.953,13.184,0.977,46.387,24.902,0
1578177459.464,3.906,14.648,28.809,51.270,-1.465,0
1578177459.468,8.301,19.531,31.250,45.410,55.664,0
1578177459.472,7.324,27.344,-4.883,47.363,20.996,0
1578177459.475,9.277,29.785,1.465,55.176,-22.461,0
1578177459.479,23.926,25.879,46.387,55.664,31.738,0
1578177459.483,23.926,19.531,40.527,58.105,21.973,0
1578177459.487,21.484,19.043,28.809,55.664,43.457,0
1578177459.491,21.973,14.648,21.973,53.223,69.824,0
1578177459.495,13.672,28.809,15.625,66.895,51.758,0
1578177459.499,5.859,28.809,15.625,56.641,20.508,0
1578177459.502,20.508,17.578,1.465,47.363,38.086,0
1578177459.506,26.855,25.391,2.441,54.199,86.426,0
1578177459.510,27.344,30.762,27.344,51.270,55.664,0
1578177459.514,24.902,8.789,24.902,55.176,0.000,0
1578177459.518,20.508,15.137,24.414,62.988,22.461,0
1578177459.519,18.555,25.391,20.508,59.570,-4.395,0
1578177459.523,13.672,10.742,19.531,58.105,-56.641,0
1578177459.527,12.207,14.160,35.156,65.918,13.184,0
1578177459.531,14.160,14.648,23.438,59.082,53.223,0
1578177459.535,19.043,17.090,1.953,45.898,51.758,0
1578177459.539,15.137,24.902,3.906,54.688,97.168,0
1578177459.543,11.230,27.832,20.508,64.941,152.832,0
1578177459.546,4.395,8.789,5.859,47.363,128.418,0
1578177459.550,2.930,9.277,10.254,49.316,58.594,0
1578177459.554,11.719,32.715,23.926,59.082,48.828,0
1578177459.558,5.859,22.461,23.438,52.246,77.148,0
1578177459.562,7.812,0.488,32.715,51.270,127.441,0
1578177459.564,7.812,2.441,16.602,45.898,96.680,0
1578177459.568,-1.953,14.160,-4.395,44.922,7.812,0
1578177459.572,0.488,20.020,8.301,51.758,86.426,0
1578177459.576,9.277,19.531,31.250,53.711,89.355,0
1578177459.580,20.996,15.625,27.832,56.641,47.852,0
1578177459.584,17.578,27.344,10.742,59.570,88.379,0
1578177459.588,4.883,21.484,2.930,44.922,89.844,0
1578177459.591,-2.930,12.695,15.137,37.109,78.613,0
1578177459.595,1.953,24.414,29.785,44.922,46.875,0
1578177459.599,15.137,21.484,18.555,46.387,27.832,0
1578177459.603,7.812,12.207,8.301,42.969,31.738,0
1578177459.607,-0.977,10.254,20.508,47.363,44.434,0
1578177459.609,7.812,20.508,35.645,51.758,75.195,0
1578177459.613,13.672,29.297,15.137,50.293,38.086,0
1578177459.617,4.395,27.344,2.441,47.363,6.348,0
1578177459.621,4.883,16.113,15.137,43.945,37.598,0
1578177459.625,8.789,8.301,22.461,41.016,8.301,0
1578177459.629,-7.324,10.254,13.672,38.574,57.617,0
1578177459.633,6.348,6.348,0.977,42.480,62.500,0
1578177459.636,11.719,5.859,28.809,48.340,-19.531,0
1578177459.640,3.906,14.648,42.480,50.781,-65.430,0
1578177459.644,-0.488,16.113,17.090,53.711,-56.152,0
1578177459.648,-12.207,19.043,7.812,50.781,-2.441,0
1578177459.652,-2.441,20.020,20.020,41.992,-16.113,0
1578177459.669,-0.977,19.043,28.809,46.387,-54.688,0
1578177459.673,1.953,18.066,20.020,49.316,-34.668,0
1578177459.677,8.789,5.371,13.184,50.781,-3.906,0
1578177459.681,-3.906,0.488,20.020,55.176,-43.457,0
1578177459.685,4.883,18.066,35.645,63.965,-56.641,0
1578177459.689,14.160,23.438,18.066,58.594,-41.016,0
1578177459.693,15.137,33.203,1.953,41.016,11.230,0
1578177459.696,25.879,52.734,20.996,56.641,-18.066,0
1578177459.700,23.926,38.086,43.457,72.266,-18.555,0
1578177459.704,30.273,17.578,38.574,62.012,31.738,0
1578177459.708,29.297,9.766,18.066,47.363,14.648,0
1578177459.712,15.625,10.254,22.949,49.805,20.020,0
1578177459.714,19.531,21.484,33.691,66.406,7.324,0
1578177459.718,4.883,19.043,39.062,63.965,-18.555,0
1578177459.722,7.324,29.785,41.504,62.500,19.531,0
1578177459.726,25.391,36.621,22.461,65.918,10.742,0
1578177459.730,18.555,26.367,8.789,55.176,34.180,0
1578177459.734,11.719,21.484,15.625,51.270,76.172,0
1578177459.738,11.230,22.461,26.855,56.641,63.477,0
1578177459.741,16.113,11.230,32.715,64.941,27.832,0
1578177459.745,28.809,3.418,18.555,62.500,25.391,0
1578177459.749,28.320,8.789,8.301,47.852,22.949,0
1578177459.753,2.441,3.418,34.180,50.781,37.598,0
1578177459.757,5.859,14.648,30.762,57.129,33.691,0
1578177459.759,23.926,38.086,15.625,50.781,17.578,0
1578177459.763,16.602,36.621,21.973,50.293,-7.812,0
1578177459.767,23.438,31.738,37.109,62.988,-34.180,2
1578177459.771,25.391,20.996,23.438,63.477,25.879,0
1578177459.775,-1.465,4.883,1.465,57.129,50.293,0
1578177459.779,3.418,18.066,7.324,55.176,59.570,0
1578177459.783,9.277,25.391,21.484,43.457,-8.789,0
1578177459.786,-6.836,22.461,31.250,41.992,-5.371,0
1578177459.790,11.719,35.645,-1.465,49.805,15.625,0
1578177459.794,18.555,42.969,-8.301,53.223,-45.410,0
1578177459.798,2.930,25.391,39.551,54.199,37.109,0
1578177459.802,5.859,9.277,34.180,54.688,64.941,0
1578177459.804,5.859,15.137,6.348,55.664,23.926,0
1578177459.808,2.930,21.973,14.648,56.641,43.945,0
1578177459.812,9.766,28.320,28.320,54.688,43.457,0
1578177459.816,11.230,21.973,30.273,51.758,29.785,0
1578177459.820,29.297,33.691,26.367,55.176,31.738,0
1578177459.824,29.785,38.086,8.789,51.270,35.645,0
1578177459.828,4.395,12.207,7.812,47.852,26.855,0
1578177459.831,-0.977,16.602,28.320,65.918,16.113,0
1578177459.835,-11.230,14.648,10.254,44.434,2.930,0
1578177459.839,-5.371,14.648,9.766,30.762,29.785,0
1578177459.843,6.836,20.508,31.738,57.129,43.457,0
1578177459.847,-4.395,17.090,26.855,52.246,28.809,0
1578177459.849,1.465,29.297,20.020,48.340,-11.719,0
1578177459.853,11.719,20.020,20.996,51.270,7.324,0
1578177459.857,16.602,11.719,25.879,55.176,42.969,0
1578177459.861,9.277,18.066,30.762,54.199,-14.160,0
1578177459.865,-4.395,11.230,20.020,42.480,-39.062,0
1578177459.869,10.254,17.578,6.348,48.340,8.301,0
1578177459.873,17.578,26.855,17.578,61.035,-1.465,0
1578177459.876,7.812,12.207,23.926,63.477,35.645,0
1578177459.880,8.789,16.113,36.621,60.059,125.977,0
1578177459.884,14.648,23.438,38.086,57.129,117.188,0
1578177459.888,12.695,10.254,17.578,46.875,40.527,0
1578177459.892,5.859,13.184,21.484,46.875,-31.250,0
1578177459.894,11.719,20.508,35.645,49.805,-20.020,0
1578177459.898,16.602,21.484,30.273,40.527,61.035,0
1578177459.902,-0.488,16.113,7.812,41.992,48.828,0
1578177459.906,1.953,14.648,14.648,49.805,6.836,0
1578177459.910,0.488,19.043,29.785,48.828,29.785,0
1578177459.914,-2.441,8.789,26.855,48.340,48.828,0
1578177459.918,13.672,5.371,28.320,59.570,82.031,0
1578177459.921,9.277,9.766,13.184,55.664,43.457,0
1578177459.925,0.000,9.277,22.461,52.734,-14.648,0
1578177459.929,8.301,14.648,39.062,59.082,-17.090,0
1578177459.933,14.648,25.879,27.344,56.641,41.016,0
1578177459.937,15.625,26.855,20.996,56.641,26.367,0
1578177459.939,23.438,22.461,25.879,54.688,-6.348,0
1578177459.943,20.996,28.809,34.180,55.176,67.383,0
1578177459.947,19.531,22.949,20.020,58.594,62.500,0
1578177459.951,30.762,17.090,11.230,68.848,10.742,0
1578177459.955,21.484,27.344,31.250,68.848,71.289,0
1578177459.959,18.555,35.645,38.574,70.312,128.906,0
1578177459.963,30.273,27.832,18.555,69.824,144.043,0
1578177459.966,41.504,9.766,12.695,64.453,109.375,0
1578177459.970,46.875,11.230,41.016,77.148,43.945,0
1578177459.974,31.738,19.531,41.992,67.383,62.012,0
1578177459.978,10.254,15.625,21.484,46.387,48.828,0
1578177459.982,5.371,17.090,15.137,59.082,26.855,0
1578177459.984,18.555,14.648,22.461,78.613,48.340,0
1578177459.988,16.113,9.277,29.297,70.801,41.992,0
1578177459.992,20.508,20.996,34.668,60.059,49.316,0
1578177459.996,21.484,14.648,17.578,47.363,42.969,0
1578177460.000,16.602,6.836,4.395,51.758,-2.930,0
1578177460.004,20.996,13.672,15.625,60.547,23.926,0
1578177460.008,19.531,7.324,25.391,53.711,93.262,0
1578177460.011,0.000,2.441,35.156,48.340,86.914,0
1578177460.015,-15.625,12.695,18.066,41.504,48.340,0
1578177460.019,-0.488,12.695,1.465,45.410,13.184,0
1578177460.023,12.695,6.348,26.855,54.199,40.527,0
1578177460.027,3.418,11.230,38.574,50.293,41.504,0
1578177460.044,10.742,16.113,18.066,51.758,17.090,0
1578177460.048,29.297,10.742,4.395,62.012,23.926,0
1578177460.052,26.367,6.836,23.438,60.059,51.270,0
1578177460.056,7.324,20.508,34.668,46.875,-8.301,0
1578177460.060,0.488,34.668,17.090,36.621,-19.043,0
1578177460.064,-8.301,20.996,-12.207,28.809,33.691,0
1578177460.068,-8.789,11.230,-0.977,22.949,62.500,0
1578177460.071,-0.488,8.789,30.273,36.621,74.707,0
1578177460.075,4.395,7.812,19.043,49.805,27.344,0
1578177460.079,21.484,27.832,4.883,46.387,48.828,0
1578177460.083,23.926,27.344,27.344,50.293,65.430,0
1578177460.087,1.465,5.859,31.738,46.875,62.012,0
1578177460.089,-0.488,19.531,11.719,46.387,81.055,0
1578177460.093,-1.953,30.273,2.441,45.410,76.660,0
1578177460.097,-9.277,16.602,11.719,37.598,47.363,0
1578177460.101,-15.137,19.531,28.320,43.945,85.449,0
1578177460.105,-3.418,22.949,14.648,41.992,94.727,0
1578177460.109,12.207,10.742,-2.930,36.133,56.641,0
1578177460.113,1.465,6.348,0.488,40.039,80.566,0
1578177460.116,2.930,23.926,21.973,49.805,79.590,0
1578177460.120,12.695,32.227,18.555,58.105,16.602,0
1578177460.124,4.883,7.324,-12.207,44.434,36.133,0
1578177460.128,-0.977,0.000,-8.789,28.809,52.734,0
1578177460.132,-1.465,9.277,21.484,41.016,12.207,0
1578177460.134,4.883,12.207,15.625,49.805,7.812,0
1578177460.138,-0.977,20.020,2.441,43.945,15.625,0
1578177460.142,-18.066,16.602,11.230,43.457,27.832,0
1578177460.146,-14.648,9.766,12.207,47.852,21.973,0
1578177460.150,-3.418,12.207,17.578,48.340,6.348,0
1578177460.154,-4.395,13.672,13.672,50.293,2.930,0
1578177460.158,-3.418,18.066,6.836,58.594,-21.484,0
1578177460.161,10.742,25.391,20.996,58.594,-21.973,0
1578177460.165,5.859,27.344,16.602,40.527,30.762,0
1578177460.169,-2.441,-3.906,6.348,36.133,63.965,0
1578177460.173,17.090,-7.324,18.555,51.270,-20.020,0
1578177460.177,11.719,12.695,19.531,53.711,-20.996,0
1578177460.179,-3.418,-0.977,18.555,47.363,51.270,0
1578177460.183,2.441,-2.930,20.996,47.852,21.973,0
1578177460.187,0.488,18.066,14.648,45.898,-13.672,0
1578177460.191,8.301,31.738,9.766,51.270,-71.777,0
1578177460.195,18.066,35.156,18.066,59.082,-52.734,0
1578177460.199,15.137,17.578,18.555,55.176,-6.836,0
1578177460.203,23.438,1.953,17.578,52.246,-91.309,0
1578177460.206,25.391,0.000,9.277,62.988,-93.750,0
1578177460.210,6.836,-0.488,-0.488,61.035,41.504,0
1578177460.214,-6.348,6.348,21.973,47.363,49.316,0
1578177460.218,14.160,17.090,22.461,46.875,35.645,0
1578177460.222,11.719,21.973,0.000,46.875,11.719,0
1578177460.224,-3.906,27.344,9.277,45.898,-22.949,0
1578177460.228,13.184,25.391,31.250,55.664,-19.531,0
1578177460.232,25.879,9.766,26.855,58.594,-43.945,0
1578177460.236,10.254,-3.906,9.277,57.129,-1.465,0
1578177460.240,11.230,-0.977,12.695,52.734,36.133,0
1578177460.244,17.578,13.184,28.320,44.922,34.668,0
1578177460.248,5.371,14.648,21.973,47.363,25.879,0
1578177460.251,7.812,18.066,-11.230,41.016,-29.785,0
1578177460.255,13.672,14.160,-12.695,31.250,26.855,0
1578177460.259,11.719,19.043,30.762,49.805,50.781,0
1578177460.263,10.742,20.508,36.621,61.523,5.859,0
1578177460.267,-0.488,-1.953,9.766,45.898,-19.531,0
1578177460.269,6.836,-11.230,-2.441,32.227,-60.059,0
1578177460.273,-1.953,-4.395,13.672,36.133,-20.508,0
1578177460.277,-21.973,4.395,20.996,35.645,35.645,0
1578177460.281,-9.277,12.695,3.418,36.621,8.789,0
1578177460.285,7.324,17.578,-7.812,39.551,16.113,0
1578177460.289,19.043,17.090,1.465,52.246,10.254,0
1578177460.293,22.461,17.578,16.113,58.105,5.371,0
1578177460.296,12.207,18.555,9.277,47.852,41.016,0
1578177460.300,20.508,24.902,26.367,65.918,-7.324,0
1578177460.304,16.113,21.484,34.668,66.895,5.859,0
1578177460.308,-2.441,8.789,15.625,36.133,14.160,0
1578177460.312,1.953,13.184,18.066,32.227,-36.621,0
1578177460.315,10.254,14.648,24.902,46.387,19.043,0
1578177460.319,11.230,12.695,13.672,56.152,103.516,0
1578177460.323,2.930,20.508,9.766,53.711,68.848,0
1578177460.327,0.000,16.113,22.949,44.434,44.434,0
1578177460.331,18.066,20.020,26.855,54.688,89.355,0
1578177460.335,22.461,32.715,17.578,67.871,130.859,0
1578177460.339,10.742,21.973,1.465,54.199,109.375,0
1578177460.342,20.996,9.766,20.996,44.434,110.352,0
1578177460.346,30.762,16.113,50.293,52.246,87.402,0
1578177460.350,33.203,15.625,21.973,53.711,-3.906,0
1578177460.354,15.625,2.930,3.418,43.945,-21.484,0
1578177460.358,-10.742,13.672,21.973,33.691,42.480,0
1578177460.359,10.254,34.180,33.691,52.246,30.273,0
1578177460.363,21.484,27.344,16.602,60.059,11.230,0
1578177460.367,15.137,17.578,12.695,59.570,95.215,0
1578177460.371,16.113,24.414,22.461,62.500,36.133,0
1578177460.375,14.648,20.508,25.879,56.641,-26.855,0
1578177460.379,23.926,12.207,19.043,57.617,56.641,0
1578177460.383,27.832,7.324,-1.953,52.734,44.434,0
1578177460.386,10.254,8.789,10.254,38.574,19.531,0
1578177460.390,-3.418,13.672,26.367,26.367,52.246,0
1578177460.394,1.465,19.043,7.324,29.297,43.457,0
1578177460.398,8.301,32.715,0.488,40.039,14.160,0
1578177460.402,5.859,18.555,17.090,46.875,-8.301,0
1578177460.419,23.438,12.695,30.762,58.105,-31.250,0
1578177460.423,29.785,30.762,16.602,49.316,-80.566,0
1578177460.427,1.465,20.020,2.930,42.480,-46.875,0
1578177460.431,-6.836,10.742,19.043,50.293,-9.277,0
1578177460.435,-11.230,15.625,29.297,33.691,-42.480,0
1578177460.439,-19.531,11.719,6.348,15.625,-22.949,0
1578177460.443,0.977,5.859,5.371,31.738,-7.324,0
1578177460.446,7.324,6.836,21.484,41.992,30.762,0
1578177460.450,-2.441,18.066,22.461,43.457,3.418,0
1578177460.454,-5.859,25.879,30.273,47.852,-47.363,0
1578177460.458,3.906,36.621,36.133,62.988,2.441,0
