timestamps,TP9,AF7,AF8,TP10,Right AUX,Marker0
1578267602.340,26.855,30.762,185.547,74.219,26.367,0
1578267602.344,18.555,24.902,164.551,61.035,13.184,0
1578267602.348,34.668,12.207,125.977,60.547,-131.348,0
1578267602.352,27.832,16.602,142.578,69.336,-127.930,0
1578267602.356,16.113,25.879,166.992,49.805,3.418,0
1578267602.360,21.973,27.832,158.203,37.109,50.781,0
1578267602.364,7.324,25.879,157.227,44.922,-58.105,0
1578267602.367,35.645,28.809,167.969,60.547,-119.629,0
1578267602.371,36.621,20.020,157.715,52.734,-20.996,0
1578267602.375,-3.906,30.762,173.828,52.734,45.898,0
1578267602.379,3.418,43.457,169.922,57.617,-27.344,0
1578267602.383,25.391,40.527,131.348,56.152,-97.168,0
1578267602.385,38.086,49.316,133.301,62.500,-30.762,0
1578267602.389,9.766,53.223,143.555,57.617,41.504,0
1578267602.393,4.395,47.363,121.582,43.457,3.418,0
1578267602.397,51.758,54.199,101.074,59.570,-104.004,0
1578267602.401,24.414,61.523,123.047,69.336,-93.262,0
1578267602.405,-9.277,62.500,145.020,60.547,36.133,0
1578267602.409,12.207,61.523,129.395,58.105,46.875,0
1578267602.412,16.113,41.992,82.031,48.828,-91.309,0
1578267602.416,23.438,47.363,96.191,53.711,-114.258,0
1578267602.420,31.250,60.059,147.949,83.496,8.789,0
1578267602.424,20.996,39.551,109.863,61.035,52.246,0
1578267602.428,24.902,30.273,67.871,35.156,-31.250,0
1578267602.430,31.250,34.180,82.031,39.062,-120.605,0
1578267602.434,30.273,41.504,125.000,62.500,-45.898,0
1578267602.438,33.203,41.504,126.953,84.961,31.738,0
1578267602.442,30.273,30.273,95.703,53.223,-37.109,0
1578267602.446,21.484,20.508,90.332,30.762,-118.164,0
1578267602.450,11.719,35.156,109.863,42.969,-42.480,0
1578267602.454,10.254,40.039,124.512,67.871,61.523,0
1578267602.457,4.395,17.090,83.496,82.520,6.836,0
1578267602.461,31.250,32.715,80.078,75.684,-80.078,0
1578267602.465,35.645,48.828,89.844,42.480,-83.496,0
1578267602.469,1.953,38.574,81.543,31.250,27.344,0
1578267602.473,7.324,40.039,104.004,54.688,97.656,0
1578267602.475,18.555,33.203,76.172,46.875,-33.203,0
1578267602.479,4.395,31.738,67.383,34.668,-85.938,0
1578267602.483,6.836,43.945,101.562,47.852,52.246,0
1578267602.487,32.715,53.711,99.121,40.527,105.469,0
1578267602.491,2.930,49.316,58.105,22.949,26.855,0
1578267602.495,-10.742,48.828,40.039,51.270,-45.898,0
1578267602.499,20.020,51.758,52.734,62.012,-21.484,0
1578267602.502,18.066,52.734,77.637,50.293,50.781,0
1578267602.506,36.621,64.453,80.566,43.457,-0.977,0
1578267602.510,44.434,59.082,48.340,30.762,-119.141,0
1578267602.514,19.531,52.246,69.824,59.082,-88.379,0
1578267602.518,34.180,53.223,98.145,86.426,45.410,0
1578267602.520,13.672,38.574,62.988,58.594,55.176,0
1578267602.524,0.977,34.180,32.715,23.926,-80.078,0
1578267602.528,2.441,41.992,60.059,30.273,-96.680,0
1578267602.532,5.859,44.434,80.566,46.387,10.742,0
1578267602.536,30.762,38.574,67.871,49.316,58.105,0
1578267602.540,21.484,15.625,32.227,47.363,-16.602,0
1578267602.544,2.930,12.207,9.277,41.504,-119.629,0
1578267602.547,12.695,43.457,67.871,39.551,-10.742,0
1578267602.551,6.348,45.410,93.750,66.895,90.820,0
1578267602.555,13.184,26.855,39.062,64.941,-13.184,0
1578267602.559,28.320,23.438,20.996,46.387,-77.148,0
1578267602.563,26.855,26.855,50.781,52.246,-7.812,0
1578267602.565,25.879,19.531,72.754,55.664,74.219,0
1578267602.569,-0.488,0.488,40.527,42.969,22.949,0
1578267602.573,8.789,4.395,24.414,42.969,-59.082,0
1578267602.577,26.367,16.602,48.828,51.758,-40.527,0
1578267602.581,10.254,22.949,48.340,53.711,68.848,0
1578267602.585,2.441,13.672,-0.977,41.016,80.566,0
1578267602.589,14.648,16.113,3.418,41.992,-40.039,0
1578267602.592,11.719,41.992,79.102,56.641,-64.453,0
1578267602.596,23.438,42.480,73.730,62.500,28.809,0
1578267602.600,23.926,34.180,40.527,47.363,65.430,0
1578267602.604,5.859,32.227,25.879,51.270,-34.180,0
1578267602.608,13.672,35.645,24.902,71.289,-81.543,0
1578267602.625,22.949,36.133,49.316,75.684,18.555,0
1578267602.629,37.598,41.504,58.594,66.406,96.680,0
1578267602.633,42.480,46.387,45.898,46.875,-3.418,0
1578267602.637,27.832,52.246,43.945,56.152,-107.910,0
1578267602.641,30.273,56.641,62.500,67.383,-46.387,1
1578267602.645,34.180,48.340,60.547,63.965,74.707,0
1578267602.649,20.508,41.504,50.293,63.477,33.691,0
1578267602.652,15.625,43.945,62.012,50.293,-75.684,0
1578267602.656,24.414,40.039,48.340,62.012,-85.449,0
1578267602.660,12.207,44.434,43.457,77.148,39.062,0
1578267602.664,17.578,55.664,63.965,59.082,105.957,0
1578267602.668,39.062,38.086,47.852,62.988,-9.277,0
1578267602.670,40.527,26.855,48.340,79.102,-49.316,0
1578267602.674,14.648,26.855,75.684,63.477,43.945,0
1578267602.678,13.672,13.184,67.383,45.898,69.336,0
1578267602.682,25.391,2.441,34.668,46.875,-29.785,0
1578267602.686,28.320,-3.906,43.457,62.500,-34.180,0
1578267602.690,29.785,-5.859,61.523,75.195,14.648,0
1578267602.694,22.461,6.348,77.637,80.078,41.504,0
1578267602.697,32.227,5.371,57.617,67.871,10.742,0
1578267602.701,39.551,-16.602,-7.324,53.223,-98.633,0
1578267602.705,48.340,-4.395,21.973,60.059,-50.781,0
1578267602.709,38.086,15.137,70.801,70.312,64.453,0
1578267602.713,17.578,10.254,41.016,55.664,28.809,0
1578267602.715,25.879,20.508,43.457,52.246,-62.988,0
1578267602.719,32.715,25.391,67.871,54.199,-78.613,0
1578267602.723,29.297,23.438,68.848,54.199,20.508,0
1578267602.727,16.113,28.809,60.547,63.965,71.289,0
1578267602.731,16.113,22.949,39.551,65.918,-55.176,0
1578267602.735,19.043,13.184,39.062,63.477,-91.309,0
1578267602.739,16.113,27.832,78.125,58.105,43.457,0
1578267602.742,27.832,18.555,68.359,54.688,73.242,0
1578267602.746,35.156,-20.020,13.184,52.246,-52.734,0
1578267602.750,46.387,-5.859,37.598,49.805,-120.605,0
1578267602.754,35.156,20.508,93.750,64.941,-26.855,0
1578267602.758,22.949,7.324,72.754,74.219,85.449,0
1578267602.760,22.949,-8.789,36.133,60.547,41.992,0
1578267602.764,15.625,-1.953,22.949,57.617,-81.543,0
1578267602.768,35.645,10.742,58.594,70.312,-50.781,0
1578267602.772,53.711,11.230,84.961,79.590,62.988,0
1578267602.776,39.062,3.906,44.922,67.871,30.273,0
1578267602.780,20.996,-2.930,18.066,54.688,-70.801,0
1578267602.784,19.531,-0.488,41.504,61.035,-93.262,0
1578267602.787,37.109,5.859,56.152,86.426,2.930,0
1578267602.791,32.227,8.301,58.105,69.824,69.824,0
1578267602.795,19.531,-2.441,55.664,24.414,-29.785,0
1578267602.799,24.414,-8.301,41.504,39.551,-135.254,0
1578267602.803,19.043,0.977,58.594,56.152,-42.480,0
1578267602.805,34.180,5.859,74.219,62.988,57.129,0
1578267602.809,50.781,0.977,46.387,59.570,-8.301,0
1578267602.813,13.672,-12.207,14.160,47.363,-93.750,0
1578267602.817,24.902,-8.301,44.434,64.453,-21.484,0
1578267602.821,40.527,-4.395,62.500,73.730,90.332,0
1578267602.825,21.484,-9.766,26.367,57.129,60.059,0
1578267602.829,22.461,0.000,11.719,53.711,-61.035,0
1578267602.832,10.742,-1.465,19.531,43.945,-54.688,0
1578267602.836,4.883,3.906,45.410,33.203,76.660,0
1578267602.840,20.996,4.395,35.156,52.734,35.156,0
1578267602.844,44.434,-2.930,16.113,60.059,-104.492,0
1578267602.848,19.531,13.184,38.086,62.500,-73.242,0
1578267602.850,11.230,27.832,58.105,71.289,30.762,0
1578267602.854,26.367,17.090,48.340,53.223,64.453,0
1578267602.858,1.465,-4.883,17.578,38.086,-29.785,0
1578267602.862,-10.742,-5.371,16.602,27.832,-112.305,0
1578267602.866,-0.977,16.602,41.504,38.574,-14.160,0
1578267602.870,14.648,26.367,47.852,76.172,98.145,0
1578267602.874,43.945,12.207,31.250,81.543,40.039,0
1578267602.877,22.461,2.930,35.156,52.246,-56.152,0
1578267602.881,-14.648,20.508,83.984,41.992,-12.695,0
1578267602.885,-7.812,17.090,69.336,45.898,61.523,0
1578267602.889,-2.930,1.465,42.969,44.434,28.809,0
1578267602.893,21.973,7.812,41.504,42.969,-45.898,0
1578267602.895,24.414,29.785,45.898,65.430,-36.621,0
1578267602.899,-0.488,42.969,70.312,78.125,70.801,0
1578267602.903,-1.953,39.551,56.152,38.086,69.824,0
1578267602.907,-5.371,49.316,47.363,9.277,-43.945,0
1578267602.911,19.043,67.383,56.641,32.227,-75.195,0
1578267602.915,26.855,71.289,66.406,56.152,29.785,0
1578267602.919,4.883,57.129,52.246,58.105,95.703,0
1578267602.922,11.719,63.477,44.434,43.457,-12.207,0
1578267602.926,13.184,85.449,64.453,47.852,-106.934,0
1578267602.930,12.695,76.660,61.523,54.688,-31.250,0
1578267602.934,15.137,60.547,65.430,48.828,70.801,0
1578267602.938,19.043,57.129,55.664,43.945,26.367,0
1578267602.955,16.602,62.988,39.551,43.457,-71.289,0
1578267602.959,9.766,66.895,64.941,49.316,-19.043,0
1578267602.963,20.020,55.664,81.543,57.617,92.285,0
1578267602.967,21.484,54.688,79.590,69.336,73.242,0
1578267602.971,7.324,55.664,48.340,50.781,-48.828,0
1578267602.975,-1.465,41.504,9.277,37.109,-102.051,0
1578267602.979,19.043,55.176,49.805,41.992,6.348,0
1578267602.982,35.645,69.336,71.777,48.828,62.500,0
1578267602.986,12.695,57.129,33.691,41.016,-50.293,0
1578267602.990,18.555,43.945,23.926,23.926,-106.934,0
1578267602.994,29.297,56.152,71.289,48.340,-8.301,0
1578267602.998,14.160,61.035,95.703,75.195,42.480,0
1578267603.000,10.254,36.621,64.453,55.176,-12.695,0
1578267603.004,19.531,35.645,62.012,44.434,-80.566,0
1578267603.008,23.438,52.246,79.102,64.453,-41.504,0
1578267603.012,13.672,53.711,85.938,70.801,60.059,0
1578267603.016,10.254,36.133,52.734,59.082,35.645,0
1578267603.020,16.602,37.109,26.855,44.922,-83.984,0
1578267603.024,15.625,62.988,67.383,64.453,-54.199,0
1578267603.027,15.137,62.500,91.797,67.383,71.289,0
1578267603.031,6.348,39.062,37.109,34.668,30.762,0
1578267603.035,15.625,40.039,-0.977,37.598,-83.984,0
1578267603.039,41.992,75.195,57.617,62.988,-91.309,0
1578267603.043,31.250,91.797,103.516,75.684,-18.066,0
1578267603.045,17.578,77.148,70.801,72.266,30.273,0
1578267603.049,18.066,62.012,44.434,60.547,-55.664,0
1578267603.053,24.902,71.777,62.988,45.898,-100.586,0
1578267603.057,27.344,75.195,81.055,67.871,-3.906,0
1578267603.061,21.973,66.406,69.336,75.684,53.711,0
1578267603.065,38.086,47.363,41.504,55.664,-13.184,0
1578267603.069,18.555,36.133,56.152,42.480,-79.102,0
1578267603.072,3.418,47.852,88.379,43.457,-12.207,0
1578267603.076,23.926,36.133,69.824,56.152,64.941,0
1578267603.080,42.480,25.391,57.617,49.316,18.555,0
1578267603.084,29.297,39.062,72.754,45.410,-84.473,0
1578267603.088,1.953,32.715,71.289,54.688,-66.895,0
1578267603.090,-1.953,28.320,82.520,58.594,62.012,0
1578267603.094,9.766,27.832,76.660,51.270,67.383,0
1578267603.098,8.301,13.184,56.152,46.387,-64.941,0
1578267603.102,22.949,17.578,56.641,52.734,-89.355,0
1578267603.106,30.273,31.250,67.871,53.711,30.273,0
1578267603.110,8.301,23.438,51.270,38.574,80.078,0
1578267603.114,20.508,16.113,43.945,29.297,-19.043,0
1578267603.117,22.461,7.812,53.711,29.785,-105.957,0
1578267603.121,25.879,30.273,75.684,43.457,-27.832,0
1578267603.125,8.301,41.992,95.215,48.340,99.121,0
1578267603.129,14.648,22.949,55.176,50.781,39.551,0
1578267603.133,29.785,34.180,23.926,42.969,-79.590,0
1578267603.135,6.836,57.617,56.641,31.738,5.371,0
1578267603.139,11.719,63.477,90.332,47.852,120.605,0
1578267603.143,17.090,36.621,56.641,59.570,66.895,0
1578267603.147,16.113,20.508,19.043,48.340,-52.734,0
1578267603.151,26.855,31.250,31.250,29.297,-54.199,0
1578267603.155,17.578,37.598,57.129,41.504,61.035,0
1578267603.159,9.277,35.156,68.848,59.082,89.844,0
1578267603.162,5.371,12.695,41.504,40.039,-4.883,0
1578267603.166,9.277,5.859,40.527,30.273,-64.453,0
1578267603.170,11.719,28.809,84.961,43.945,-9.766,0
1578267603.174,-4.883,22.949,75.684,40.527,54.199,0
1578267603.178,5.371,8.789,44.922,31.250,0.000,0
1578267603.182,13.672,21.484,41.504,38.574,-78.125,0
1578267603.186,-0.488,36.133,83.984,48.828,-18.555,0
1578267603.190,3.906,41.992,87.891,34.668,83.008,0
1578267603.194,18.555,40.527,33.691,35.156,36.133,0
1578267603.198,13.184,41.992,20.508,35.156,-87.402,0
1578267603.202,-0.977,61.035,48.340,39.062,-62.988,0
1578267603.206,-1.953,78.613,72.754,55.176,66.406,0
1578267603.209,-0.488,70.801,26.855,25.391,50.781,0
1578267603.213,3.906,75.684,16.602,20.020,-59.082,0
1578267603.217,-0.977,86.426,50.293,54.688,-62.012,0
1578267603.221,0.488,76.172,49.316,47.363,39.551,0
1578267603.225,9.277,68.848,35.156,25.391,51.270,0
1578267603.225,13.184,65.918,17.578,28.809,-37.598,0
1578267603.229,13.184,54.688,28.809,32.227,-64.941,0
1578267603.233,-0.488,59.570,51.270,47.363,-4.883,0
1578267603.237,4.395,81.543,58.105,47.852,70.801,0
1578267603.241,20.996,75.684,38.574,47.363,2.441,0
1578267603.245,8.301,63.965,17.090,53.711,-95.703,0
1578267603.249,12.207,65.430,15.137,59.082,-54.199,0
1578267603.252,22.949,74.219,38.574,61.035,51.270,0
1578267603.256,32.227,73.730,48.340,51.270,31.250,0
1578267603.260,13.672,59.082,17.578,47.852,-85.449,0
1578267603.264,12.695,63.965,28.809,52.734,-73.242,0
1578267603.268,20.996,58.594,60.547,61.035,40.039,0
1578267603.270,5.371,41.016,34.668,41.504,41.504,0
1578267603.274,17.090,37.598,-7.812,21.484,-44.922,0
1578267603.278,11.230,43.457,-2.441,27.344,-75.195,0
1578267603.282,-3.418,54.199,37.109,30.762,-2.930,0
1578267603.286,26.855,66.895,44.434,52.246,66.406,0
1578267603.290,28.320,65.918,-0.488,63.965,-11.719,0
1578267603.294,11.719,57.129,-19.531,56.152,-110.352,0
1578267603.297,16.602,72.754,39.062,37.598,-17.578,0
1578267603.301,0.000,68.359,68.359,26.855,59.082,0
1578267603.305,1.465,40.039,18.555,42.969,-22.949,0
1578267603.309,30.762,38.574,-1.465,57.129,-68.848,0
1578267603.313,12.207,56.152,39.551,76.172,-11.719,0
1578267603.315,-7.812,75.684,59.570,58.105,84.961,0
1578267603.319,12.207,71.289,20.508,32.715,82.031,0
1578267603.323,18.066,66.406,0.000,30.273,-20.020,0
1578267603.327,0.488,79.590,31.250,39.551,-46.875,0
1578267603.331,-1.465,76.660,54.688,44.434,60.059,0
1578267603.335,26.367,59.082,26.855,53.223,98.633,0
1578267603.339,37.109,56.152,19.043,66.406,-15.137,0
1578267603.342,16.113,58.105,45.410,60.059,-47.363,0
1578267603.346,15.137,56.152,46.387,52.246,47.363,0
1578267603.350,17.578,70.312,39.062,73.242,97.168,0
1578267603.354,30.762,68.848,20.020,67.383,13.672,0
1578267603.358,32.227,42.969,24.414,38.086,-55.664,0
1578267603.375,1.465,35.645,50.293,54.199,41.504,0
1578267603.379,17.090,36.621,43.457,65.918,106.934,0
1578267603.383,12.207,25.879,29.297,36.133,45.410,0
1578267603.387,3.906,28.320,36.621,33.691,-27.832,0
1578267603.391,16.602,18.066,50.293,53.223,16.113,0
1578267603.395,15.625,-0.488,44.434,69.336,91.309,0
1578267603.399,13.672,10.254,19.043,54.688,51.758,0
1578267603.402,12.207,6.348,-0.977,34.180,-57.129,0
1578267603.406,6.348,-20.508,4.395,47.852,-74.707,0
1578267603.410,7.812,-23.926,21.484,59.082,30.762,0
1578267603.414,35.156,-9.277,43.945,62.012,76.660,0
1578267603.418,41.992,-12.695,30.273,57.129,-36.621,0
1578267603.420,14.160,-5.859,7.812,52.246,-91.309,0
1578267603.424,-3.906,4.883,23.926,51.270,29.297,0
1578267603.428,18.066,-6.836,38.086,51.270,98.633,0
1578267603.432,28.809,-25.391,18.555,47.852,41.504,0
1578267603.436,23.438,-34.668,5.859,61.523,-38.086,0
1578267603.440,28.809,-25.391,26.367,85.938,-9.277,0
1578267603.444,5.859,-10.742,38.086,69.336,93.750,0
1578267603.447,0.488,-12.207,11.719,50.781,49.316,0
1578267603.451,11.719,-18.555,-39.062,27.832,-67.383,0
1578267603.455,11.719,8.301,-18.555,32.715,-51.270,0
1578267603.459,26.367,22.949,52.246,63.477,60.059,0
1578267603.463,38.574,-4.395,29.297,54.688,54.199,0
1578267603.465,50.293,-9.766,-1.953,58.105,-87.402,0
1578267603.469,24.414,-15.625,26.367,60.059,-69.824,0
1578267603.473,2.441,-14.648,50.781,54.688,60.059,0
1578267603.477,25.391,12.207,25.879,78.125,62.012,0
1578267603.481,28.320,25.391,-8.301,80.566,-46.875,0
1578267603.485,15.625,20.020,-7.324,25.879,-85.938,0
1578267603.489,-11.719,13.672,34.180,8.301,13.184,0
1578267603.492,-22.949,2.930,30.273,15.137,89.844,0
1578267603.496,-10.254,-18.066,-20.020,19.531,2.441,0
1578267603.500,-8.789,-2.930,-0.488,19.531,-93.750,0
1578267603.504,-8.789,21.973,32.715,14.160,-28.320,0
1578267603.508,-10.742,-2.930,21.973,25.391,84.473,0
1578267603.510,-10.742,-19.043,6.348,32.227,44.434,0
1578267603.514,11.230,-5.371,10.254,44.922,-77.148,0
1578267603.518,23.438,0.000,27.344,57.129,-61.523,0
1578267603.522,10.742,-6.836,24.902,39.551,83.496,0
1578267603.526,6.348,-14.160,3.906,29.297,110.840,0
1578267603.530,9.277,-16.602,3.418,34.668,-12.695,0
1578267603.534,0.977,-13.672,28.320,38.574,-59.082,0
1578267603.537,8.789,-3.418,31.250,46.387,36.621,0
1578267603.541,32.715,9.277,21.973,62.988,98.145,0
1578267603.545,23.438,8.301,33.203,60.547,13.672,0
1578267603.549,1.953,-2.930,16.602,48.828,-64.941,0
1578267603.553,5.859,23.926,27.832,56.641,13.672,0
1578267603.555,11.230,42.480,42.969,54.688,105.957,0
1578267603.559,13.184,18.066,13.184,43.945,51.270,0
1578267603.563,8.789,4.883,-9.766,24.902,-51.758,0
1578267603.567,6.348,29.785,17.578,29.785,-2.930,0
1578267603.571,16.113,49.805,38.574,43.457,105.957,0
1578267603.575,13.672,30.762,11.230,40.527,59.082,0
1578267603.579,53.711,29.297,1.953,56.641,-61.523,0
1578267603.582,62.012,37.109,8.789,63.965,-72.754,0
1578267603.586,6.348,55.176,47.363,67.383,52.734,0
1578267603.590,-4.883,74.707,54.688,60.059,73.242,0
1578267603.594,17.090,58.594,9.277,55.664,-27.344,0
1578267603.598,29.785,58.594,3.906,66.406,-60.547,0
1578267603.600,23.926,68.848,38.086,55.176,41.992,0
1578267603.604,17.578,51.270,23.926,60.059,101.074,0
1578267603.608,32.227,35.156,-13.672,53.711,0.000,0
1578267603.612,45.898,48.828,-7.324,50.781,-97.656,0
1578267603.616,18.066,59.570,10.254,60.547,-16.602,0
1578267603.620,1.465,55.664,18.555,58.105,87.891,0
1578267603.624,6.348,52.246,-1.465,48.828,28.320,0
1578267603.627,22.461,60.059,-13.184,36.133,-59.082,0
1578267603.631,34.180,69.824,11.230,52.734,-55.664,0
1578267603.635,14.648,64.453,24.414,64.941,45.410,0
1578267603.639,11.719,63.477,19.531,44.922,62.988,0
1578267603.643,13.672,52.246,9.277,33.203,-39.062,0
1578267603.645,15.625,54.688,18.066,47.852,-68.848,0
1578267603.649,40.527,77.148,43.945,69.824,48.340,0
1578267603.653,34.668,79.102,36.133,78.613,105.957,0
1578267603.657,20.508,61.523,15.137,64.453,16.602,0
1578267603.661,47.363,54.199,7.812,59.570,-23.926,0
1578267603.665,35.645,58.594,16.113,55.664,42.480,0
1578267603.669,15.137,50.781,17.090,42.480,100.586,0
1578267603.672,18.066,53.223,19.531,40.039,14.648,0
1578267603.676,13.672,57.617,36.133,53.711,-62.012,0
1578267603.680,14.648,60.547,45.898,67.383,10.254,0
1578267603.684,17.578,71.777,41.016,57.617,101.562,0
1578267603.688,21.484,69.336,21.484,42.969,87.402,0
1578267603.690,16.113,59.570,6.348,55.664,-12.695,0
1578267603.694,27.832,60.547,9.277,67.871,-28.320,0
1578267603.698,41.016,62.500,27.344,69.336,73.242,0
1578267603.702,28.320,55.176,26.855,76.660,75.684,0
1578267603.706,23.438,51.270,6.836,62.500,-60.059,0
1578267603.710,28.809,46.875,-10.742,46.875,-76.660,0
1578267603.714,24.414,54.199,5.371,64.941,12.695,0
1578267603.717,26.855,60.059,27.344,75.195,58.105,0
1578267603.721,28.320,44.922,-1.465,51.758,-11.230,0
1578267603.725,10.254,39.062,-7.324,55.664,-93.262,0
1578267603.729,14.648,45.898,34.180,83.008,-1.465,0
1578267603.733,28.809,44.434,43.457,54.688,73.242,0
1578267603.750,20.508,25.391,7.812,32.715,-20.996,0
1578267603.754,0.977,26.367,0.977,38.574,-92.285,0
1578267603.758,2.930,43.457,25.391,43.457,-25.391,0
1578267603.762,12.695,42.969,38.086,46.875,56.152,0
1578267603.766,13.672,29.297,14.648,42.969,36.621,0
1578267603.770,12.695,18.555,-14.648,41.016,-57.617,0
1578267603.774,16.113,25.391,9.766,56.641,-71.777,0
1578267603.777,34.180,35.645,50.781,86.426,48.828,0
1578267603.781,30.762,27.832,32.227,83.008,68.848,0
1578267603.785,29.785,30.762,-8.789,52.246,-53.223,0
1578267603.789,29.297,41.992,-1.465,36.621,-67.871,0
1578267603.793,4.395,41.504,12.695,42.969,35.645,0
1578267603.795,7.812,41.016,2.441,47.363,69.336,0
1578267603.799,20.508,34.668,-7.812,40.527,-1.953,0
1578267603.803,8.789,31.738,-2.441,40.039,-40.039,0
1578267603.807,-4.395,22.461,7.812,44.434,25.879,0
1578267603.811,4.883,1.465,7.324,47.363,113.281,0
1578267603.815,23.926,-10.742,-10.742,39.062,76.660,0
1578267603.819,35.156,-5.371,-8.789,43.457,-35.645,0
1578267603.822,8.301,17.090,20.508,61.523,-23.438,0
1578267603.826,15.625,29.785,9.766,60.547,76.660,0
1578267603.830,37.109,30.762,-8.301,62.500,49.805,0
1578267603.834,21.973,40.039,16.602,70.801,-38.086,0
1578267603.838,14.648,23.926,31.738,77.637,-29.297,0
1578267603.840,23.926,11.719,37.598,60.059,81.543,0
1578267603.844,20.020,19.043,20.020,55.176,113.281,0
1578267603.848,17.578,17.578,4.883,63.965,16.113,0
1578267603.852,41.016,10.742,9.766,58.594,-56.641,0
1578267603.856,54.199,14.648,37.109,59.082,28.809,0
1578267603.860,24.414,14.648,38.086,64.453,116.211,0
1578267603.864,15.625,9.766,9.766,56.641,41.992,0
1578267603.867,20.996,8.301,7.324,58.594,-53.223,0
1578267603.871,15.625,15.137,11.719,57.129,21.973,0
1578267603.875,19.531,29.297,28.320,49.805,100.586,0
1578267603.879,45.898,25.879,17.578,47.852,21.973,0
1578267603.883,65.430,8.301,-6.836,45.410,-77.637,0
1578267603.885,29.297,10.254,28.320,49.316,-27.344,0
1578267603.889,1.953,25.391,62.012,54.199,99.609,0
1578267603.893,28.320,24.902,41.992,63.477,87.891,0
1578267603.897,30.273,8.301,6.836,59.570,-47.363,0
1578267603.901,-0.488,13.184,17.578,61.035,-48.828,0
1578267603.905,-0.977,13.184,40.039,63.477,88.867,0
1578267603.909,2.441,-2.441,36.133,42.480,117.676,0
1578267603.912,12.695,-0.977,-2.441,39.062,-21.484,0
1578267603.916,14.648,11.230,-7.324,48.828,-95.215,0
1578267603.920,11.230,33.203,45.898,55.664,12.695,0
1578267603.924,27.832,37.598,41.016,62.500,71.777,0
1578267603.928,25.879,23.438,14.648,49.316,17.090,0
1578267603.930,21.484,19.043,17.578,42.480,-47.363,0
1578267603.934,39.062,33.203,43.945,74.707,-8.301,0
1578267603.938,49.805,31.250,47.852,73.242,89.355,0
1578267603.942,45.898,15.137,14.648,58.105,57.617,0
1578267603.946,40.039,14.648,2.441,77.637,-41.016,0
1578267603.950,41.504,29.785,27.832,86.426,-17.090,0
1578267603.954,28.320,20.996,53.711,89.355,88.379,0
1578267603.957,43.457,4.395,20.508,70.312,73.242,0
1578267603.961,41.016,18.066,6.348,45.898,-20.996,0
1578267603.965,14.160,30.273,33.203,46.875,-43.945,0
1578267603.969,24.902,33.691,20.996,61.035,24.902,0
1578267603.973,5.859,25.391,4.883,48.828,74.219,0
1578267603.975,10.742,10.742,1.465,48.828,0.977,0
1578267603.979,20.020,11.230,4.883,52.734,-77.637,0
1578267603.983,8.789,24.902,11.230,52.246,-28.809,0
1578267603.987,25.391,33.691,26.855,65.918,74.219,0
1578267603.991,24.902,25.879,21.484,60.547,56.152,0
1578267603.995,36.621,18.066,-5.371,57.129,-40.039,0
1578267603.999,61.035,20.996,-2.441,62.988,2.441,0
1578267604.002,30.762,39.551,22.461,81.055,98.633,0
1578267604.006,32.227,49.316,27.344,100.586,59.082,0
1578267604.010,35.156,40.527,-3.418,61.035,-40.039,0
1578267604.014,40.039,38.574,-0.488,67.383,-53.223,0
1578267604.018,55.664,34.668,21.484,100.098,42.480,0
1578267604.020,37.598,31.738,19.043,62.988,75.195,0
1578267604.024,28.809,19.531,-14.160,59.082,-61.035,0
1578267604.028,56.152,18.555,-12.207,56.641,-109.863,0
1578267604.032,49.805,34.668,28.809,62.988,31.250,0
1578267604.036,27.832,40.039,17.090,77.637,73.242,0
1578267604.040,27.832,42.480,-27.344,62.988,-0.977,0
1578267604.044,17.090,38.086,-51.270,53.711,-77.637,0
1578267604.047,36.133,54.688,-4.883,85.449,-23.926,0
1578267604.051,40.039,53.711,22.461,89.844,44.922,0
1578267604.055,59.570,38.574,-22.949,94.238,-2.441,0
1578267604.059,59.570,35.645,-39.551,104.492,-87.891,0
1578267604.063,28.809,35.645,-1.465,50.293,-76.172,0
1578267604.080,38.086,46.875,19.531,51.270,64.453,0
1578267604.084,45.410,39.551,-5.859,83.496,68.848,0
1578267604.088,54.199,31.250,-27.344,92.285,-27.344,0
1578267604.092,48.340,43.945,-11.230,107.910,-34.668,0
1578267604.096,47.363,51.270,6.348,82.031,48.828,0
1578267604.100,44.922,32.227,-28.320,63.477,81.543,0
1578267604.104,33.203,27.344,-42.969,72.266,22.949,0
1578267604.107,42.480,41.016,-19.531,75.195,-11.719,0
1578267604.111,54.688,41.016,-13.184,74.219,47.363,0
1578267604.115,53.711,34.180,-10.742,75.195,101.562,0
1578267604.119,70.801,20.020,-26.367,82.031,20.508,0
1578267604.123,55.176,14.648,-34.180,81.055,-65.918,0
1578267604.125,43.945,18.066,-15.625,85.449,-7.812,0
1578267604.129,52.734,21.484,-11.230,90.820,70.312,0
1578267604.133,30.273,20.996,-30.273,74.219,38.086,0
1578267604.137,37.598,18.555,-47.363,70.801,-75.684,0
1578267604.141,50.293,22.461,-31.738,73.242,-53.711,0
1578267604.145,40.039,22.949,-19.531,90.332,65.918,0
1578267604.149,37.109,22.461,-42.969,90.332,58.594,0
1578267604.152,25.879,25.879,-46.387,62.500,-43.457,0
1578267604.156,29.297,25.391,-32.227,65.918,-64.453,0
1578267604.160,47.852,17.578,-35.156,85.938,31.738,0
1578267604.164,42.480,23.926,-17.578,75.195,74.219,0
1578267604.168,36.133,23.926,-24.414,54.199,-14.160,0
1578267604.170,32.227,13.672,-47.363,53.711,-98.145,0
1578267604.174,38.574,23.926,-11.230,86.426,8.301,0
1578267604.178,40.527,31.250,4.395,95.215,94.238,0
1578267604.182,18.555,31.250,-28.320,61.035,-14.648,0
1578267604.186,24.414,22.949,-39.062,57.129,-111.328,0
1578267604.190,25.879,28.809,-10.742,69.824,-6.348,0
1578267604.194,26.367,39.062,7.812,63.477,96.680,0
1578267604.197,27.344,29.297,-0.488,55.664,41.992,0
1578267604.201,19.043,14.160,-35.645,64.941,-50.293,0
1578267604.205,16.113,24.414,-21.973,53.711,-46.387,0
1578267604.209,22.461,38.086,28.320,62.500,67.871,0
1578267604.213,43.457,24.902,8.301,82.520,69.824,0
1578267604.215,32.715,19.043,-13.672,61.523,-42.480,0
1578267604.219,21.484,20.020,-12.695,58.105,-85.449,0
1578267604.223,41.016,31.250,3.906,74.219,-7.324,0
1578267604.227,41.504,36.621,15.137,64.941,96.191,0
1578267604.231,27.344,26.367,-13.672,63.965,47.363,0
1578267604.235,33.203,31.738,-29.785,66.406,-2.441,0
1578267604.239,13.672,46.875,3.418,68.848,77.148,0
1578267604.242,7.812,46.387,12.695,68.359,107.422,0
1578267604.246,20.508,33.203,-29.785,48.828,14.160,0
1578267604.250,24.902,43.945,-15.625,57.129,-81.055,0
1578267604.254,25.391,54.688,19.043,71.777,-24.902,0
1578267604.258,17.578,42.480,0.977,81.055,73.242,0
1578267604.260,22.461,38.574,-15.625,71.777,74.707,0
1578267604.264,33.203,30.273,-21.484,43.457,-19.531,0
1578267604.268,41.016,28.320,-9.277,51.270,-52.734,0
1578267604.272,35.156,35.645,2.930,68.848,43.945,0
1578267604.276,7.324,26.855,-7.324,68.359,75.684,0
1578267604.280,29.785,25.879,-20.020,83.984,17.578,0
1578267604.284,39.062,35.156,-11.230,78.613,-11.230,0
1578267604.287,3.906,28.809,-12.207,47.363,34.668,0
1578267604.291,0.488,19.043,-10.742,49.805,103.516,0
1578267604.295,4.395,18.555,-5.371,53.223,24.902,0
1578267604.299,4.883,15.625,-28.320,55.176,-83.984,0
1578267604.303,17.578,31.250,-10.254,63.477,-19.043,0
1578267604.305,29.785,37.598,13.184,62.500,98.633,0
1578267604.309,45.410,22.461,-0.977,48.340,62.500,0
1578267604.313,49.805,17.090,-13.184,67.383,-48.828,0
1578267604.317,27.832,34.668,5.859,83.496,-15.137,0
1578267604.321,14.160,44.922,23.926,58.105,121.582,0
1578267604.325,8.789,40.527,-8.789,47.363,108.887,0
1578267604.329,16.602,39.551,-22.949,52.734,-4.883,0
1578267604.332,11.719,33.691,-20.508,41.504,10.254,0
1578267604.336,23.926,37.598,4.395,62.012,84.961,0
1578267604.340,37.109,29.297,14.648,74.219,70.312,0
1578267604.344,22.949,2.930,-21.973,58.105,-22.949,0
1578267604.348,17.090,9.766,-29.297,59.082,-57.617,0
1578267604.350,25.879,34.180,-6.348,63.477,27.344,0
1578267604.354,22.949,32.715,-0.977,62.500,95.703,0
1578267604.358,34.180,25.879,-33.203,58.594,8.789,0
1578267604.362,28.320,16.113,-27.832,71.777,-58.105,0
1578267604.366,11.230,18.066,1.953,66.895,5.371,0
1578267604.370,8.789,19.531,-0.977,43.457,99.121,0
1578267604.374,17.090,-1.953,-33.691,44.434,82.520,0
1578267604.377,31.250,-5.859,-56.152,46.875,-9.277,0
1578267604.381,13.184,17.090,-7.324,43.945,-17.578,0
1578267604.385,-10.742,20.508,28.809,45.898,72.754,0
1578267604.389,3.906,21.973,5.371,41.504,56.152,0
1578267604.393,15.625,34.668,-8.301,33.203,-70.801,0
1578267604.395,15.625,42.969,5.371,43.945,-68.848,0
1578267604.399,12.695,44.434,6.348,51.270,5.371,0
1578267604.403,36.133,43.945,5.859,56.152,73.730,0
1578267604.407,15.137,34.180,-11.719,46.387,31.738,0
1578267604.411,-27.344,28.809,-25.391,34.180,-70.801,0
1578267604.415,11.230,37.598,-10.742,53.711,13.672,0
1578267604.419,23.438,38.574,-23.438,56.152,122.559,0
1578267604.422,36.133,47.852,-33.691,28.809,25.879,0
1578267604.426,28.320,48.828,-14.648,41.504,-62.988,0
1578267604.430,-6.836,31.250,-9.277,60.547,-0.488,0
1578267604.434,-0.977,33.691,-0.977,60.059,100.586,0
1578267604.438,1.953,33.691,-20.020,41.016,56.641,0
1578267604.455,18.066,30.762,-27.344,18.555,-48.340,0
1578267604.459,9.766,28.809,-11.719,57.617,0.000,0
1578267604.463,12.207,30.273,3.418,77.637,89.844,0
1578267604.467,48.828,37.598,4.395,46.875,75.684,0
1578267604.471,45.410,36.621,-20.996,38.574,-37.109,0
1578267604.475,5.859,28.809,-43.457,45.898,-94.238,0
1578267604.479,-13.672,38.086,-9.766,38.086,35.645,0
1578267604.482,3.906,49.316,26.367,50.781,76.172,0
1578267604.486,18.066,39.551,-1.953,53.711,-27.832,0
1578267604.490,13.672,31.250,-10.254,47.363,-69.824,0
1578267604.494,0.000,44.434,12.695,63.965,-16.113,0
1578267604.498,5.371,55.176,25.391,67.871,50.781,0
1578267604.500,26.855,51.758,4.883,48.828,27.344,0
1578267604.504,42.480,52.246,-14.648,44.922,-41.504,0
1578267604.508,22.949,55.664,15.137,64.941,-7.324,0
1578267604.512,-3.418,55.664,22.949,52.246,91.309,0
1578267604.516,24.902,45.410,-18.555,41.504,50.293,0
1578267604.520,25.879,40.039,-29.785,57.129,-28.320,0
1578267604.524,5.371,38.086,1.465,67.871,-14.648,0
1578267604.527,41.992,37.109,22.461,61.523,46.387,0
1578267604.531,27.344,28.809,3.906,50.781,38.574,0
1578267604.535,16.113,19.531,-12.207,56.641,3.906,0
1578267604.539,24.414,36.133,8.789,53.223,-31.250,0
1578267604.543,11.230,56.152,30.273,45.898,3.906,0
1578267604.545,27.832,43.457,20.996,59.082,81.055,0
1578267604.549,8.789,35.645,4.883,54.688,16.602,0
1578267604.553,-4.883,46.875,7.812,46.387,-83.496,0
1578267604.557,14.160,55.664,13.184,42.480,-33.691,0
1578267604.561,7.812,59.082,6.348,43.457,67.383,0
1578267604.565,-6.836,56.152,-8.301,39.551,31.738,0
1578267604.569,-2.930,62.012,-0.977,33.203,-37.598,0
1578267604.572,0.000,70.312,22.461,47.852,-29.785,0
1578267604.576,21.973,63.965,17.578,50.293,77.637,0
1578267604.580,28.320,58.594,0.488,43.945,69.824,0
1578267604.584,19.043,69.824,13.672,50.781,-53.711,0
1578267604.588,27.832,74.707,30.273,66.406,-36.133,0
1578267604.590,20.508,64.941,30.762,53.223,73.730,0
1578267604.594,26.367,58.105,24.414,65.430,75.684,0
1578267604.598,39.062,55.176,19.043,66.895,3.418,0
1578267604.602,9.766,46.387,7.812,36.133,-46.387,0
1578267604.606,23.926,59.082,26.367,67.871,23.926,0
1578267604.610,25.879,69.336,20.996,56.641,112.793,0
1578267604.614,-1.953,66.406,-5.371,43.457,34.180,0
1578267604.617,13.672,67.383,-1.953,48.828,-36.133,0
1578267604.621,12.695,63.477,-0.488,41.504,-12.207,0
1578267604.625,17.090,64.941,21.484,45.898,54.199,0
1578267604.629,22.949,69.824,22.949,57.129,35.645,0
1578267604.633,18.066,61.523,-11.719,57.129,-50.781,0
1578267604.635,21.973,67.383,-14.648,42.480,-57.129,0
1578267604.639,18.066,78.613,11.719,41.016,37.109,0
1578267604.643,6.348,59.570,-1.953,41.504,26.855,0
1578267604.647,18.066,46.875,-29.297,62.500,-88.867,0
1578267604.651,32.227,51.270,-10.742,69.336,-52.246,0
1578267604.655,19.531,51.270,9.766,54.199,47.852,0
1578267604.659,-7.812,58.105,15.625,36.133,93.750,0
1578267604.662,5.859,53.711,-29.785,26.855,41.016,0
1578267604.666,18.066,54.199,-36.133,42.480,-10.254,0
1578267604.670,11.719,66.406,10.254,55.176,25.879,0
1578267604.674,22.461,65.430,10.742,62.988,69.824,0
1578267604.678,17.578,54.688,-12.207,57.129,4.395,0
1578267604.680,12.207,50.781,-21.973,45.898,-34.668,0
1578267604.684,13.672,58.594,-1.465,54.199,23.438,0
1578267604.688,31.738,52.734,-1.953,52.734,63.965,0
1578267604.692,71.289,41.016,-12.695,55.176,32.227,0
1578267604.696,51.270,38.086,-17.090,75.195,-37.109,0
1578267604.700,2.930,41.504,-20.020,53.711,-26.855,0
1578267604.704,5.859,45.898,-9.766,49.805,50.293,0
1578267604.707,14.160,32.227,-28.320,61.523,69.336,0
1578267604.711,6.348,20.020,-30.273,40.039,-13.184,0
1578267604.715,1.953,23.926,-6.348,45.898,-70.801,0
1578267604.719,7.324,26.855,-6.836,57.617,-0.977,0
1578267604.723,15.625,26.367,-10.742,53.223,49.805,0
1578267604.725,12.695,28.809,-24.902,52.246,-27.344,0
1578267604.729,23.438,34.180,-27.832,60.059,-86.426,0
1578267604.733,38.086,33.691,-8.789,76.172,-2.930,0
1578267604.737,26.855,39.551,-5.859,64.941,65.430,0
1578267604.741,23.438,38.574,-17.090,24.902,25.391,0
1578267604.745,25.879,29.785,-31.250,33.691,-78.613,0
1578267604.749,10.254,39.551,-25.391,57.129,-66.895,0
1578267604.752,-7.324,43.945,-7.324,62.500,45.410,0
1578267604.756,0.977,43.457,4.883,46.875,51.758,0
1578267604.760,11.230,29.297,-21.973,30.273,-36.621,0
1578267604.764,8.301,29.297,-17.578,43.457,-58.105,0
1578267604.768,12.695,40.527,16.113,65.430,50.781,0
1578267604.770,17.090,38.574,-1.465,56.641,56.641,0
1578267604.774,14.160,28.809,-29.297,33.203,-47.363,0
1578267604.778,28.320,31.738,-14.160,52.246,-64.453,0
1578267604.782,19.531,33.691,20.508,71.777,31.738,0
1578267604.786,16.602,26.855,11.719,55.664,70.312,0
1578267604.790,18.066,24.414,-14.160,49.316,20.508,0
1578267604.794,18.066,19.531,-31.738,51.270,-60.059,0
1578267604.797,28.320,30.273,-1.953,34.668,-46.387,0
1578267604.801,9.766,41.992,29.297,36.133,49.805,0
1578267604.805,4.395,36.133,-0.977,53.711,41.992,0
1578267604.809,22.461,33.691,-15.625,62.500,-67.871,0
1578267604.813,15.625,36.621,1.465,59.082,-77.148,0
1578267604.830,14.648,40.527,12.695,40.527,48.828,0
1578267604.834,24.414,27.344,-7.812,46.387,63.477,0
1578267604.838,18.555,20.996,-19.043,55.176,-13.672,0
1578267604.842,11.230,27.344,-0.488,31.250,-36.133,0
1578267604.846,8.789,25.879,6.348,37.598,18.066,0
1578267604.850,20.508,23.926,-13.672,45.898,77.148,0
1578267604.854,26.855,33.203,-20.508,36.621,56.641,0
1578267604.857,26.367,49.805,-0.977,53.711,-9.766,0
1578267604.861,9.277,49.805,16.602,60.059,48.828,0
1578267604.865,0.488,36.621,11.719,39.551,113.281,0
1578267604.869,8.789,31.738,-7.812,53.223,29.785,0
1578267604.873,33.691,40.527,-13.672,61.523,-47.852,0
1578267604.875,28.809,47.852,3.418,50.781,-0.977,0
1578267604.879,3.906,39.062,6.348,55.664,53.223,0
1578267604.883,21.484,29.785,-8.789,50.781,42.969,0
1578267604.887,33.691,28.320,-17.090,37.109,-30.762,0
1578267604.891,16.113,27.344,-15.625,44.922,-37.598,0
1578267604.895,15.625,24.414,-8.789,62.500,71.777,0
1578267604.899,20.508,24.414,-8.789,50.781,104.492,0
1578267604.902,12.695,18.555,-25.391,43.457,-21.484,0
1578267604.906,5.371,21.973,-22.461,48.340,-60.059,0
1578267604.910,9.277,32.227,-16.602,46.387,69.336,0
1578267604.914,21.484,31.738,-5.371,45.410,127.441,0
1578267604.918,22.949,23.926,-6.348,45.410,58.594,0
1578267604.920,6.836,17.578,-35.645,55.664,-43.945,0
1578267604.924,17.090,22.949,-13.672,62.500,-17.090,0
1578267604.928,30.762,28.320,5.859,34.668,90.332,0
1578267604.932,13.184,28.809,-25.391,30.273,27.344,0
1578267604.936,10.742,30.273,-41.504,46.875,-66.406,0
1578267604.940,12.695,37.598,-16.113,51.758,3.906,0
1578267604.944,0.977,39.551,3.906,51.270,104.980,0
1578267604.947,0.977,28.320,-9.766,35.645,81.055,0
1578267604.951,30.762,19.531,-51.270,26.855,7.324,0
1578267604.955,41.016,37.598,-30.762,46.387,17.578,0
1578267604.959,1.465,55.664,22.949,61.523,82.520,0
1578267604.963,5.859,40.039,-10.254,45.410,72.266,0
1578267604.965,15.625,38.086,-35.645,27.832,31.250,0
1578267604.969,25.391,50.293,-18.066,52.246,12.207,0
1578267604.973,49.805,63.965,6.348,62.988,34.180,0
1578267604.977,21.973,62.500,6.836,46.387,28.809,0
1578267604.981,13.672,34.668,-6.348,70.312,-32.715,0
1578267604.985,15.625,32.227,-24.414,64.941,-62.988,0
1578267604.989,-5.859,49.805,-16.113,35.645,-5.371,0
1578267604.992,2.441,47.363,-0.488,50.293,49.316,0
1578267604.996,23.438,39.062,-25.879,54.688,16.602,0
1578267605.000,42.969,45.898,-35.156,25.879,-73.730,0
1578267605.004,53.223,59.570,-7.324,39.062,-48.340,0
1578267605.008,19.043,46.387,4.883,56.641,73.242,0
1578267605.010,-7.324,25.391,-13.184,53.223,57.129,0
1578267605.014,11.719,32.715,-18.555,59.570,-62.988,0
1578267605.018,20.020,43.945,6.836,69.336,-59.570,0
1578267605.022,-2.441,43.457,22.461,63.965,55.176,0
1578267605.026,0.000,43.457,13.184,43.457,104.492,0
1578267605.030,24.902,42.480,-0.488,44.922,29.785,0
1578267605.034,19.531,47.852,19.531,62.988,-25.879,0
1578267605.037,11.230,51.758,22.461,63.477,21.973,0
1578267605.041,19.531,47.852,5.371,36.133,77.148,0
1578267605.045,12.207,43.457,14.648,29.297,21.973,0
1578267605.049,5.859,31.250,11.719,52.734,-56.641,0
1578267605.053,20.020,32.715,32.227,62.988,1.953,0
1578267605.055,20.020,35.645,51.270,55.664,96.191,0
1578267605.059,27.344,36.621,36.621,47.852,45.410,0
1578267605.063,24.414,29.297,17.578,52.734,-47.363,0
1578267605.067,1.953,32.227,25.391,53.711,-33.203,0
1578267605.071,31.250,58.105,41.016,58.594,67.871,0
1578267605.075,27.344,54.199,28.809,59.082,99.121,0
1578267605.079,6.836,37.109,12.207,50.781,20.508,0
1578267605.082,31.250,39.062,-4.395,53.223,-57.617,0
1578267605.086,4.395,59.570,30.762,57.129,23.926,0
1578267605.090,-1.953,61.035,39.551,37.598,83.984,0
1578267605.094,6.836,41.016,-5.371,37.109,38.574,0
1578267605.098,8.789,36.133,-9.277,49.316,-24.414,0
1578267605.100,17.090,42.969,21.484,40.039,3.418,0
1578267605.104,6.836,40.527,25.879,37.109,81.055,0
1578267605.108,10.742,26.367,-4.883,43.945,38.086,0
1578267605.112,14.648,23.926,-6.348,38.086,-47.363,0
1578267605.116,11.719,37.109,21.973,43.945,-5.859,0
1578267605.120,17.578,29.297,21.484,64.453,107.910,0
1578267605.124,17.578,12.695,-8.301,60.547,75.195,0
1578267605.127,12.695,17.090,-16.602,47.852,-11.719,0
1578267605.131,14.648,31.738,18.555,45.898,-6.348,0
1578267605.135,10.742,30.762,30.273,54.199,64.453,0
1578267605.139,13.184,19.531,8.789,47.363,70.801,0
1578267605.143,23.438,20.508,3.906,39.062,4.395,0
1578267605.145,25.391,26.367,17.578,54.199,-16.113,0
1578267605.149,33.203,27.832,19.043,61.523,54.688,0
1578267605.153,29.785,20.996,20.508,56.641,129.883,0
1578267605.157,29.297,6.348,8.301,57.129,74.219,0
1578267605.161,18.066,6.836,-0.977,54.199,-12.207,0
1578267605.165,-7.812,9.766,11.719,51.270,43.945,0
1578267605.169,6.348,5.371,3.418,52.246,80.566,0
1578267605.172,15.137,11.230,4.395,45.410,34.180,0
1578267605.176,21.484,16.113,10.254,41.992,-49.805,0
1578267605.180,31.250,13.672,11.719,54.199,-64.941,0
1578267605.184,19.531,15.137,26.367,56.641,44.922,0
1578267605.188,8.789,15.625,25.879,49.316,67.383,0
1578267605.205,19.043,15.625,12.207,53.223,-0.977,0
1578267605.209,29.297,11.719,6.836,61.035,-34.180,0
1578267605.213,11.719,18.066,24.902,54.688,53.711,0
1578267605.217,12.695,27.832,13.184,47.363,79.102,0
1578267605.221,29.297,26.367,-12.207,67.383,-34.668,0
1578267605.225,24.902,29.297,-7.812,78.613,-56.641,0
1578267605.229,25.879,40.039,19.043,56.152,36.621,0
1578267605.232,21.973,53.711,46.387,38.574,137.207,0
1578267605.236,13.672,48.340,8.789,34.668,47.363,0
1578267605.240,23.926,42.969,-12.695,45.898,-95.215,0
1578267605.244,16.113,51.758,20.996,58.594,-22.461,0
1578267605.248,6.836,60.547,29.297,65.918,74.219,0
1578267605.250,21.973,52.734,3.418,64.453,62.988,0
1578267605.254,19.531,43.945,-10.254,51.758,-3.906,0
1578267605.258,10.254,47.363,1.953,53.223,-24.414,0
1578267605.262,24.902,49.805,13.184,56.641,53.223,0
1578267605.266,24.902,41.016,-4.883,49.805,75.684,0
1578267605.270,18.066,31.250,-20.508,46.875,-20.508,0
1578267605.274,23.438,38.574,8.301,50.781,-50.293,0
1578267605.277,30.762,49.316,40.527,47.363,29.297,0
1578267605.281,15.625,33.691,29.785,59.082,64.941,0
1578267605.285,11.719,13.672,-1.953,56.641,5.371,0
1578267605.289,20.020,27.832,12.207,50.293,-47.852,0
1578267605.293,15.625,47.363,44.434,67.383,7.812,0
1578267605.295,25.391,45.410,35.645,91.797,86.426,0
1578267605.299,74.707,43.945,14.648,100.586,17.578,0
1578267605.303,40.039,39.062,19.531,74.707,-62.988,0
1578267605.307,-2.930,28.320,32.715,46.875,-19.043,0
1578267605.311,15.625,24.902,22.949,45.410,58.594,0
1578267605.315,6.348,21.484,-7.324,42.480,53.223,0
1578267605.319,19.531,28.320,-10.254,48.340,-51.758,0
1578267605.322,14.648,38.086,9.766,65.918,-38.574,0
1578267605.326,16.113,25.391,2.441,59.570,59.570,0
1578267605.330,26.855,19.531,4.883,48.340,65.430,0
1578267605.334,12.207,18.066,3.906,46.875,-37.109,0
1578267605.338,18.555,16.602,-11.230,52.734,-65.918,0
1578267605.340,30.762,18.066,-9.277,60.547,49.316,0
1578267605.344,25.391,17.090,1.953,69.336,84.473,0
1578267605.348,14.648,19.531,-5.859,57.617,-14.160,0
1578267605.352,25.879,16.602,-20.020,62.988,-78.613,0
1578267605.356,28.320,24.414,-15.625,65.918,-19.043,0
1578267605.360,9.766,27.832,-10.742,56.152,100.586,0
1578267605.364,14.160,13.184,-14.160,41.992,35.645,0
1578267605.367,18.555,9.766,-20.996,22.949,-75.195,0
1578267605.371,5.859,9.277,-24.902,32.227,-13.672,0
1578267605.375,7.812,20.508,-0.977,41.016,95.703,0
1578267605.379,3.906,17.578,-0.488,50.293,57.617,0
1578267605.383,6.836,4.395,-25.391,60.547,-41.016,0
1578267605.385,10.254,14.160,-5.859,49.805,-20.996,0
1578267605.389,10.742,17.578,10.254,42.480,59.082,0
1578267605.393,20.508,9.766,-4.395,53.711,63.477,0
1578267605.397,47.852,1.953,-32.227,51.758,7.812,0
1578267605.401,41.504,11.719,-32.227,55.664,-18.555,0
1578267605.405,26.367,16.113,-4.395,66.406,26.367,0
1578267605.409,23.438,4.395,16.602,71.289,83.984,0
1578267605.412,9.766,-12.207,-20.020,48.828,32.715,0
1578267605.416,0.000,-7.812,-37.598,22.461,-44.922,0
1578267605.420,-0.488,22.461,11.230,34.668,-2.441,0
1578267605.424,1.465,23.926,3.906,44.922,74.707,0
1578267605.428,9.277,16.113,-20.508,65.430,33.203,0
1578267605.430,40.527,18.066,-18.066,76.172,-33.203,0
1578267605.434,32.227,18.066,8.301,37.109,-4.395,0
1578267605.438,23.438,8.789,11.230,56.152,75.195,0
1578267605.442,16.113,4.395,-15.137,73.242,76.660,0
1578267605.446,-11.719,5.371,-26.855,40.039,-25.879,0
1578267605.450,10.254,9.277,-24.414,52.734,-48.340,0
1578267605.454,23.926,25.391,-2.441,61.523,55.176,0
1578267605.457,3.418,20.020,-20.020,35.645,70.801,0
1578267605.461,12.207,14.160,-22.461,43.457,-19.531,0
1578267605.465,28.809,12.207,11.230,67.383,-36.621,0
1578267605.469,17.090,-3.906,4.883,48.828,8.301,0
1578267605.473,17.578,-6.836,-3.418,31.738,70.801,0
1578267605.475,31.738,4.395,-3.906,46.875,20.996,0
1578267605.479,24.414,11.719,-2.441,60.059,-64.941,0
1578267605.483,10.254,7.812,5.371,64.941,-6.348,0
1578267605.487,11.719,7.812,9.766,59.082,96.191,0
1578267605.491,1.465,1.953,-0.977,34.180,81.055,0
1578267605.495,9.277,-10.254,-19.531,31.738,-39.062,0
1578267605.499,25.391,0.000,-18.066,45.898,-30.273,0
1578267605.502,27.344,11.230,8.301,62.012,80.566,0
1578267605.506,17.578,12.207,17.090,57.617,79.590,0
1578267605.510,28.809,8.789,-18.555,50.293,-25.879,0
1578267605.514,11.230,12.207,-20.996,49.805,-73.242,0
1578267605.518,16.113,21.973,3.418,58.105,45.410,0
1578267605.520,37.598,27.832,-8.789,54.688,101.562,0
1578267605.524,20.508,23.438,-31.738,38.086,3.418,0
1578267605.528,16.113,22.461,-22.461,39.551,-30.762,0
1578267605.532,12.207,26.367,-1.465,52.246,50.781,0
1578267605.536,20.996,19.531,-20.996,46.387,91.797,0
1578267605.540,12.207,7.812,-46.875,41.992,33.203,0
1578267605.544,3.418,4.395,-43.457,42.969,-20.020,0
1578267605.547,9.766,20.508,-10.742,46.387,18.066,0
1578267605.551,11.230,25.879,10.742,47.852,95.215,0
1578267605.555,6.348,14.160,-19.531,37.109,59.082,0
1578267605.559,22.949,18.066,-34.668,33.691,-74.219,0
1578267605.563,26.855,34.668,-10.254,41.504,-57.617,0
1578267605.565,3.906,39.062,7.812,63.965,87.402,0
1578267605.569,7.812,26.855,-12.207,51.270,74.707,0
1578267605.573,16.113,31.738,-26.855,41.504,-24.902,0
1578267605.577,9.277,48.340,-8.301,47.852,-18.555,0
1578267605.581,9.277,41.016,5.371,50.293,72.266,0
1578267605.585,28.809,19.043,-10.254,60.547,132.324,0
1578267605.589,35.645,9.277,-21.484,58.105,52.734,0
1578267605.592,17.090,18.066,-8.789,61.523,-44.434,0
1578267605.596,2.441,30.762,-7.812,58.105,2.441,0
1578267605.600,-7.324,25.879,-20.996,42.969,92.285,0
1578267605.604,13.672,21.484,-34.668,55.176,65.918,0
1578267605.608,21.973,25.879,-34.668,32.227,-20.996,0
1578267605.625,-0.488,28.809,-12.695,13.184,-16.602,0
1578267605.629,5.859,26.367,7.812,41.504,95.703,0
1578267605.633,8.301,16.113,-8.789,37.109,96.191,0
1578267605.637,5.371,13.672,-23.438,36.621,24.902,0
1578267605.641,7.812,20.508,-20.508,52.246,-4.395,0
1578267605.645,4.883,28.320,-12.207,51.758,65.918,0
1578267605.649,21.484,29.297,-13.672,55.664,105.957,0
1578267605.652,27.344,26.855,-24.414,55.664,5.859,0
1578267605.656,17.578,10.254,-37.109,55.176,-24.414,0
1578267605.660,25.879,4.395,-38.086,57.617,42.969,0
1578267605.664,23.438,16.113,-15.137,59.082,85.938,0
1578267605.668,26.855,3.906,-17.578,58.594,22.461,0
1578267605.670,31.738,-10.742,-39.551,49.316,-39.062,0
1578267605.674,20.508,-6.836,-26.855,60.547,-27.344,0
1578267605.678,13.184,1.953,-15.625,70.801,47.852,0
1578267605.682,21.973,10.254,-25.879,61.035,35.156,0
1578267605.686,23.438,4.883,-38.086,55.664,-68.359,0
1578267605.690,12.695,4.395,-40.527,50.293,-29.297,0
1578267605.694,19.531,15.625,-16.602,53.711,101.074,0
1578267605.697,33.691,8.301,-17.090,71.289,69.824,0
1578267605.701,40.527,0.000,-47.363,66.895,-12.695,0
1578267605.705,34.668,11.230,-36.621,63.477,17.090,0
1578267605.709,23.438,20.996,5.859,64.941,81.055,0
1578267605.713,19.531,4.883,-13.672,60.059,79.102,0
1578267605.715,31.250,-1.953,-39.551,68.359,10.254,0
1578267605.719,32.715,5.859,-24.902,67.871,-24.414,0
1578267605.723,20.508,12.207,-10.254,60.059,34.180,0
1578267605.727,30.762,15.625,-20.996,68.359,96.191,0
1578267605.731,35.156,5.371,-31.738,68.848,55.664,0
1578267605.735,15.625,-3.906,-39.062,51.270,-1.465,0
1578267605.739,3.906,17.578,-24.414,66.895,16.113,0
1578267605.742,19.531,40.039,-8.301,80.078,58.594,0
1578267605.746,16.113,25.391,-39.551,45.898,8.301,0
1578267605.750,20.508,22.949,-36.621,33.203,-77.637,0
1578267605.754,27.344,35.156,-1.953,51.758,-49.805,0
1578267605.758,12.695,22.949,-4.883,59.082,43.945,0
1578267605.760,26.367,11.719,-12.695,47.852,43.945,0
1578267605.764,19.043,15.137,-4.883,41.992,-52.734,0
1578267605.768,5.371,24.902,2.930,52.246,-117.676,0
1578267605.772,6.836,18.066,15.137,55.664,3.906,0
1578267605.776,-1.953,8.789,0.000,42.480,80.078,0
1578267605.780,5.371,17.578,-26.367,36.133,-28.809,0
1578267605.784,3.906,27.832,-4.395,47.852,-70.312,0
1578267605.787,-4.883,26.855,8.789,41.504,-4.883,0
1578267605.791,4.395,34.180,7.812,30.762,55.176,0
1578267605.795,9.277,37.109,13.184,29.785,-3.906,0
1578267605.799,4.395,21.973,6.348,27.832,-87.891,0
1578267605.803,4.395,22.461,27.832,33.203,-20.996,0
1578267605.806,-1.953,20.508,42.969,51.758,87.402,0
1578267605.810,14.648,20.508,28.320,59.570,67.871,0
1578267605.814,35.156,20.020,9.766,44.922,-37.598,0
1578267605.818,9.766,28.809,21.484,52.734,-24.414,0
1578267605.822,-1.953,43.945,38.574,58.105,93.262,0
1578267605.826,47.363,32.227,10.254,45.898,104.980,0
1578267605.830,40.527,21.484,-13.672,43.945,10.254,0
1578267605.833,-7.812,17.578,-9.766,38.574,26.855,0
1578267605.837,-7.812,23.926,26.855,37.598,111.328,0
1578267605.841,3.418,27.344,43.457,55.176,92.285,0
1578267605.845,12.207,15.625,-11.719,58.594,28.809,0
1578267605.849,4.883,1.465,-36.133,40.527,-14.648,0
1578267605.850,2.930,-1.953,-2.930,30.762,33.203,0
1578267605.854,-5.371,2.441,19.531,31.250,112.793,0
1578267605.858,15.137,-6.836,-1.465,34.180,83.008,0
1578267605.862,51.758,-9.766,-18.066,46.875,-4.883,0
1578267605.866,23.438,6.836,-1.953,63.965,-6.348,0
1578267605.870,-1.465,23.438,-0.977,56.152,95.215,0
1578267605.874,3.906,25.391,-35.156,47.363,94.727,0
1578267605.877,3.906,26.367,-53.223,39.062,-21.484,0
1578267605.881,38.086,38.086,-0.488,54.199,-33.691,0
1578267605.885,38.086,34.668,22.461,64.941,68.359,0
1578267605.889,9.277,17.090,-12.207,44.434,75.684,0
1578267605.893,18.555,12.207,-30.762,35.156,6.836,0
1578267605.895,19.531,22.461,-22.949,39.551,-20.020,0
1578267605.899,-1.465,29.785,0.977,46.387,37.598,0
1578267605.903,0.977,32.227,8.301,50.293,100.586,0
1578267605.907,6.348,24.902,-10.742,45.898,72.754,0
1578267605.911,20.996,19.043,-22.949,44.434,-50.781,0
1578267605.915,20.020,16.602,-11.230,74.707,-54.688,0
1578267605.919,5.859,6.836,-5.371,68.359,66.406,0
1578267605.922,17.578,9.277,0.000,36.621,54.688,0
1578267605.926,28.809,15.625,3.906,37.598,-33.203,0
1578267605.930,28.809,13.184,-2.441,41.992,-20.020,0
1578267605.934,15.625,3.906,-2.441,63.965,60.059,0
1578267605.938,9.277,-0.488,-8.301,63.965,42.480,0
1578267605.940,3.418,5.371,-21.484,58.105,-47.363,0
1578267605.944,-4.883,-1.465,-34.668,42.480,-38.086,0
1578267605.948,2.930,1.953,-16.602,33.691,81.055,0
1578267605.952,10.254,8.789,0.000,42.969,116.211,0
1578267605.956,16.602,5.371,-19.043,43.457,18.066,0
1578267605.960,19.531,-6.836,-46.875,49.805,-53.223,0
1578267605.964,13.184,-0.977,-25.879,51.758,32.227,0
1578267605.967,18.066,11.719,13.184,36.621,116.211,0
1578267605.971,10.742,0.000,-6.348,28.320,44.434,0
1578267605.975,24.902,4.883,-18.555,42.480,-27.344,0
1578267605.979,36.621,18.066,7.812,59.570,-5.859,0
1578267605.983,23.926,21.973,15.137,72.754,53.223,0
1578267606.000,16.602,18.555,-26.367,77.637,15.137,0
1578267606.004,10.742,14.160,-41.016,92.773,-76.660,0
1578267606.008,16.113,23.438,-16.602,64.941,-65.918,0
1578267606.012,5.859,37.598,-11.230,17.090,34.180,0
1578267606.016,-11.719,26.855,-34.180,14.648,66.406,0
1578267606.020,-5.371,8.789,-58.105,23.438,5.371,0
1578267606.024,-1.953,11.230,-49.805,38.086,-64.941,0
1578267606.027,5.371,20.996,-14.160,51.270,8.301,0
1578267606.031,12.207,17.090,-12.695,60.059,85.938,0
1578267606.035,9.277,5.371,-43.945,52.734,-16.602,0
1578267606.039,11.719,12.695,-23.438,43.945,-85.449,0
1578267606.043,20.508,17.090,1.953,62.988,0.000,0
1578267606.045,24.414,-6.348,-20.020,63.965,60.547,0
1578267606.049,27.832,-29.297,-28.809,53.711,21.484,0
1578267606.053,40.527,-39.062,-21.484,54.199,-85.449,0
1578267606.057,28.809,-40.039,-13.184,72.754,-75.195,0
1578267606.061,25.879,-29.297,-7.324,75.684,52.246,0
1578267606.065,39.551,-19.043,-17.090,69.336,59.570,0
1578267606.069,28.809,-14.160,-22.949,68.848,-45.410,0
1578267606.072,-0.488,-12.207,-1.465,62.988,-56.641,0
1578267606.076,3.418,-23.926,-1.465,62.988,72.754,0
1578267606.080,18.555,-33.691,-20.020,59.082,96.191,0
1578267606.084,20.020,-25.391,-12.695,62.012,-28.809,0
1578267606.088,29.785,-29.297,5.371,63.965,-57.617,0
1578267606.090,42.969,-20.020,11.719,67.383,32.227,0
1578267606.094,36.133,-3.418,8.301,72.754,101.074,0
1578267606.098,6.836,-9.766,-6.836,59.082,15.625,0
1578267606.102,-3.418,-10.254,-19.043,46.387,-69.824,0
1578267606.106,6.836,1.953,-2.441,58.594,27.344,0
1578267606.110,9.766,6.348,-1.953,58.105,107.910,0
1578267606.114,30.762,8.789,-3.418,63.477,42.969,0
1578267606.117,43.945,15.137,11.719,91.797,-32.227,0
1578267606.121,38.574,5.371,-20.996,68.359,-17.090,0
1578267606.125,17.578,12.695,-16.602,37.598,68.359,0
1578267606.129,0.488,21.973,5.859,40.527,62.012,0
1578267606.133,18.066,12.695,-36.621,41.992,-39.551,0
1578267606.135,23.926,13.672,-34.180,50.293,-46.387,0
1578267606.139,14.160,20.508,5.859,52.734,56.641,0
1578267606.143,20.020,9.766,1.953,58.105,110.840,0
1578267606.147,32.715,-4.395,-38.086,68.848,6.836,0
1578267606.151,25.391,11.719,-38.086,64.941,-60.059,0
1578267606.155,29.297,39.062,-3.906,59.082,30.762,0
1578267606.159,40.527,49.805,13.672,55.664,102.051,0
1578267606.162,20.508,36.133,-19.531,48.340,41.992,0
1578267606.166,12.695,39.551,-47.852,46.875,-57.617,0
1578267606.170,32.227,67.383,-7.812,53.223,-41.504,0
1578267606.174,33.203,67.871,5.371,61.523,70.312,0
1578267606.178,26.367,66.406,29.785,67.871,59.570,0
1578267606.182,25.879,63.965,73.242,65.430,-60.547,0
1578267606.186,21.973,71.777,87.891,63.477,-45.410,0
1578267606.190,14.648,80.566,66.406,56.641,77.637,0
1578267606.194,-4.883,51.758,35.156,54.688,95.215,0
1578267606.198,17.090,41.016,32.227,55.176,-32.227,0
1578267606.202,51.758,67.871,40.527,40.527,-75.195,0
1578267606.206,31.738,85.938,24.414,44.434,33.691,0
1578267606.209,22.461,109.375,-66.406,67.871,79.590,0
1578267606.213,53.711,156.738,-109.375,85.449,-1.953,0
1578267606.217,8.301,112.305,-77.637,50.293,-43.945,0
1578267606.221,-39.551,19.043,132.812,10.742,42.480,0
1578267606.225,-38.574,5.859,652.344,15.625,81.543,0
1578267606.225,-30.762,27.344,-997.559,3.418,-286.133,0
1578267606.229,-21.973,46.875,992.188,1.953,-628.418,0
1578267606.233,-16.113,69.824,992.188,16.113,-550.781,0
1578267606.237,-6.348,96.191,-998.535,8.301,-409.180,0
1578267606.241,-34.668,114.746,999.512,11.230,-396.973,0
1578267606.245,-47.363,121.094,999.512,2.930,-489.258,0
1578267606.249,-32.715,130.371,999.512,2.441,-474.121,0
1578267606.252,-41.016,145.996,999.512,13.672,-484.375,0
1578267606.256,-44.434,158.203,999.512,-8.301,-401.367,0
1578267606.260,-46.875,143.066,999.512,-22.949,-337.891,0
1578267606.264,-50.781,128.418,999.512,-22.461,-352.539,0
1578267606.268,-55.664,138.184,999.512,-31.250,-226.562,0
1578267606.270,-47.852,141.602,999.512,-20.508,-155.273,0
1578267606.274,-29.785,137.695,999.512,-7.324,-235.352,0
1578267606.278,-34.180,145.020,999.512,-12.695,-312.500,0
1578267606.282,-40.527,154.785,999.512,-10.254,-211.914,0
1578267606.286,-44.434,151.367,999.512,0.488,-106.445,0
1578267606.290,-37.598,139.160,-999.023,10.742,-148.438,0
1578267606.294,-31.738,128.418,990.723,4.395,-233.398,0
1578267606.297,-33.691,144.531,-998.535,5.371,-234.375,0
1578267606.301,-28.320,167.480,940.430,1.953,91.309,0
1578267606.305,-13.184,159.668,566.895,16.602,359.863,0
1578267606.309,0.977,156.738,74.219,25.879,311.035,0
1578267606.313,-8.789,165.527,-284.180,22.949,284.668,0
1578267606.315,-11.719,164.551,-606.445,24.902,407.715,0
1578267606.319,44.434,149.414,-892.578,31.738,217.285,0
1578267606.323,31.738,145.508,-971.680,42.969,-260.254,0
1578267606.327,-25.391,157.715,-958.984,21.484,-335.938,0
1578267606.331,-17.090,165.527,-966.797,13.672,-199.707,0
1578267606.335,10.742,155.762,-966.797,40.039,-130.859,0
1578267606.339,27.344,145.996,-966.309,34.180,-218.262,0
1578267606.342,5.859,151.367,-966.309,22.461,-276.855,0
1578267606.346,-14.160,143.066,-966.797,19.043,-191.406,0
1578267606.350,-4.395,132.812,-966.309,25.879,-83.496,0
1578267606.354,6.348,125.977,-966.309,29.785,-94.238,0
1578267606.358,20.020,117.676,-966.309,32.227,-208.496,0
1578267606.375,38.574,119.629,-966.309,58.594,-173.828,0
1578267606.379,43.457,121.094,-966.309,78.613,-58.594,0
1578267606.383,27.832,112.793,-966.309,67.871,-59.082,0
1578267606.387,-0.488,98.145,-966.309,40.039,-159.668,0
1578267606.391,2.441,85.938,-966.309,35.645,-176.758,0
1578267606.395,15.625,77.148,-966.309,38.086,-62.988,0
1578267606.399,15.625,75.195,-966.797,35.645,-42.969,0
1578267606.402,13.184,70.312,-966.309,35.645,-125.000,0
1578267606.406,8.789,51.270,-966.309,44.922,-149.414,0
1578267606.410,23.438,50.293,-966.309,64.453,-70.801,0
1578267606.414,38.086,55.176,-966.309,77.637,5.371,0
1578267606.418,26.367,40.039,-966.309,46.875,-65.918,0
1578267606.420,17.578,28.320,-966.309,42.480,-138.184,0
1578267606.424,9.766,32.227,-966.309,60.547,-54.688,0
1578267606.428,7.324,28.320,-966.309,46.875,46.875,0
1578267606.432,19.043,20.020,-966.309,59.570,-32.715,0
1578267606.436,31.738,19.043,-966.309,63.965,-134.277,0
1578267606.440,26.855,11.719,-966.309,45.898,-73.242,0
1578267606.444,30.273,10.254,-966.309,56.641,44.434,0
1578267606.447,20.508,13.672,-966.797,57.617,41.016,0
1578267606.451,14.648,-4.883,-966.309,63.477,-82.520,0
1578267606.455,31.250,-3.418,-966.309,69.336,-106.934,0
1578267606.459,35.156,20.020,-966.309,57.617,-4.883,0
1578267606.463,33.203,15.625,-965.820,56.152,54.199,0
1578267606.465,20.020,2.930,-964.844,51.758,23.438,0
1578267606.469,14.160,0.488,-957.520,44.922,89.355,0
1578267606.473,26.855,11.230,-918.457,54.199,394.531,0
1578267606.477,32.227,9.766,-918.945,69.336,519.043,0
1578267606.481,34.180,-2.441,-958.984,83.496,241.211,0
1578267606.485,25.391,0.488,-942.383,78.125,189.453,0
1578267606.489,18.555,8.301,-869.141,64.453,408.691,0
1578267606.492,21.973,5.859,-812.988,60.059,533.203,0
1578267606.496,10.742,-13.672,-833.008,50.293,491.699,0
1578267606.500,40.527,-3.906,-787.598,52.246,411.133,0
1578267606.504,53.223,6.348,-691.895,51.758,371.094,0
1578267606.508,16.602,-3.906,-632.324,67.383,411.621,0
1578267606.510,7.812,-7.812,-591.797,77.148,430.664,0
1578267606.514,20.996,-7.324,-562.012,48.340,320.801,0
1578267606.518,18.066,-1.465,-505.371,41.016,262.207,0
1578267606.522,10.254,8.789,-458.496,65.918,322.266,0
1578267606.526,24.414,11.230,-447.266,56.152,362.305,0
1578267606.530,23.926,0.000,-461.914,47.852,281.738,0
1578267606.534,9.277,5.371,-430.176,51.270,204.102,0
1578267606.537,28.320,11.230,-408.691,51.270,257.812,0
1578267606.541,44.922,12.207,-401.367,65.918,323.242,0
1578267606.545,48.340,20.020,-385.742,57.617,238.770,0
1578267606.549,39.062,24.414,-370.605,72.754,126.953,0
1578267606.553,20.508,30.762,-295.898,89.355,175.781,0
1578267606.555,15.137,24.414,-255.859,72.266,261.719,0
1578267606.559,23.926,12.207,-274.902,60.547,216.309,0
1578267606.563,18.555,8.789,-290.039,40.039,149.902,0
1578267606.567,20.020,8.789,-257.812,41.992,117.676,0
1578267606.571,23.926,8.789,-206.543,57.129,175.293,0
1578267606.575,22.949,1.953,-209.473,60.059,225.586,0
1578267606.579,31.250,-3.906,-227.051,72.266,131.836,0
1578267606.582,48.340,-5.859,-213.867,72.754,71.289,0
1578267606.586,58.594,20.020,-145.020,67.383,141.602,0
1578267606.590,35.156,33.203,-104.980,61.523,202.637,0
1578267606.594,22.461,13.184,-119.141,57.617,100.098,0
1578267606.598,11.719,12.695,-94.727,58.594,27.832,0
1578267606.600,6.348,25.879,-67.871,57.129,102.539,0
1578267606.604,18.066,24.902,-66.406,60.547,144.531,0
1578267606.608,23.438,21.484,-79.590,61.523,62.988,0
1578267606.612,31.738,33.203,-65.918,64.453,-19.531,2
1578267606.616,59.082,45.410,-32.227,84.473,17.578,0
1578267606.620,38.574,40.527,-18.555,74.219,108.398,0
1578267606.624,6.348,32.227,-20.020,47.363,127.930,0
1578267606.627,20.508,28.809,-12.695,50.781,40.527,0
1578267606.631,21.973,38.574,33.203,51.270,10.254,0
1578267606.635,16.113,39.062,49.316,56.641,66.895,0
1578267606.639,24.902,32.227,39.062,69.336,116.211,0
1578267606.643,32.227,26.367,31.250,70.801,36.621,0
1578267606.645,32.715,26.855,29.785,54.688,-67.871,0
1578267606.649,17.578,31.250,44.922,56.152,30.762,0
1578267606.653,5.859,31.250,31.250,55.176,136.719,0
1578267606.657,13.184,35.645,16.113,46.875,39.062,0
1578267606.661,15.625,41.016,34.180,45.410,-46.875,0
1578267606.665,13.672,41.992,63.477,39.551,46.387,0
1578267606.669,32.715,33.203,59.082,41.016,124.023,0
1578267606.672,10.742,32.227,50.293,41.504,75.195,0
1578267606.676,-13.672,33.691,69.824,36.133,-7.324,0
1578267606.680,28.809,36.133,98.145,52.246,-4.883,0
1578267606.684,28.320,43.457,130.371,63.965,76.172,0
1578267606.688,2.930,31.250,132.812,49.805,79.102,0
1578267606.690,5.371,19.043,123.047,48.828,-6.348,0
1578267606.694,5.371,19.531,131.348,56.641,-59.082,0
1578267606.698,20.020,26.367,172.363,54.688,35.645,0
1578267606.702,24.414,33.203,195.312,44.922,131.348,0
1578267606.706,16.113,25.879,173.828,43.457,34.180,0
1578267606.710,31.738,8.789,160.156,52.734,-23.926,0
1578267606.714,40.527,15.625,188.477,86.914,59.082,0
1578267606.717,26.367,34.180,217.285,86.426,80.566,0
1578267606.721,9.277,22.461,202.148,37.598,-0.488,0
1578267606.725,4.883,18.066,195.312,30.273,-75.684,0
1578267606.729,5.859,25.391,211.914,40.527,3.418,0
1578267606.733,13.184,22.461,233.398,69.824,116.699,0
1578267606.750,39.062,18.066,225.098,71.289,97.168,0
1578267606.754,25.879,10.742,183.594,40.039,-12.695,0
1578267606.758,9.277,15.625,195.801,52.246,-44.434,0
1578267606.762,13.672,19.043,229.980,83.008,39.551,0
1578267606.766,29.785,15.137,216.797,91.309,58.105,0
1578267606.770,60.059,13.672,197.754,82.520,-21.484,0
1578267606.774,35.645,14.160,218.750,75.684,-50.781,0
1578267606.777,19.531,21.973,240.723,65.918,45.410,0
1578267606.781,32.715,18.066,233.398,77.637,93.262,0
1578267606.785,22.461,16.602,222.168,65.918,0.488,0
1578267606.789,24.414,32.715,236.816,48.828,-71.289,0
1578267606.793,15.625,39.062,261.230,67.871,5.371,0
1578267606.795,9.766,27.832,261.230,72.266,81.055,0
1578267606.799,38.574,14.160,252.441,69.336,45.898,0
1578267606.803,33.203,17.578,256.836,55.664,-9.766,0
1578267606.807,-0.488,27.832,270.020,52.734,-10.742,0
1578267606.811,14.160,30.273,258.301,56.152,73.730,0
1578267606.815,16.602,30.762,243.652,45.410,96.680,0
1578267606.819,9.766,30.762,256.836,36.133,26.855,0
1578267606.822,26.367,28.809,281.250,47.852,-19.043,0
1578267606.826,22.949,26.367,280.762,50.781,74.707,0
1578267606.830,20.996,32.715,269.043,40.527,131.348,0
1578267606.834,15.625,44.922,288.086,64.941,62.988,0
1578267606.838,26.855,42.969,278.320,77.637,-8.789,0
1578267606.840,21.484,48.340,281.250,52.734,33.691,0
1578267606.844,-1.953,55.176,287.109,51.758,107.422,0
1578267606.848,21.484,48.340,266.113,55.664,46.875,0
1578267606.852,53.223,46.387,250.488,63.965,-34.668,0
1578267606.856,19.043,62.988,251.953,80.078,19.531,0
1578267606.860,-5.371,64.941,265.625,57.129,104.492,0
1578267606.864,3.906,53.711,258.789,34.668,62.988,0
1578267606.867,10.742,53.223,241.699,36.133,-38.086,0
1578267606.871,9.277,57.617,237.305,41.504,6.348,0
1578267606.875,7.812,64.941,249.512,52.246,113.770,0
1578267606.879,7.324,63.477,237.305,47.852,59.570,0
1578267606.883,10.254,55.664,199.707,34.180,-3.906,0
1578267606.885,8.301,58.105,197.266,36.621,-19.043,0
1578267606.889,1.953,63.477,218.262,52.734,47.363,0
1578267606.893,19.043,53.711,203.613,55.176,117.676,0
1578267606.897,32.715,40.527,157.715,49.805,42.480,0
1578267606.901,22.461,38.086,152.832,58.105,-16.113,0
1578267606.905,25.391,46.387,179.199,62.500,38.574,0
1578267606.909,20.020,55.176,200.195,68.848,107.422,0
1578267606.912,0.488,44.434,166.992,55.176,69.336,0
1578267606.916,12.207,45.410,134.277,28.809,-17.090,0
1578267606.920,11.230,66.406,183.105,36.133,-8.301,0
1578267606.924,4.883,60.547,201.172,53.223,76.660,0
1578267606.928,8.789,44.922,170.410,51.270,70.801,0
1578267606.930,17.578,42.480,152.832,46.875,-13.184,0
1578267606.934,17.090,47.852,160.645,55.664,-18.066,0
1578267606.938,17.578,48.828,166.016,69.336,68.359,0
1578267606.942,16.602,46.387,153.809,62.988,84.473,0
1578267606.946,28.320,48.340,135.742,72.754,-17.090,0
1578267606.950,44.434,55.176,128.906,76.660,-45.410,0
1578267606.954,16.602,68.359,155.762,63.965,63.965,0
1578267606.957,2.441,57.617,140.625,48.340,118.164,0
1578267606.961,8.301,47.852,115.723,43.457,28.320,0
1578267606.965,16.113,50.293,135.254,54.688,-62.012,0
1578267606.969,29.297,42.969,140.137,54.688,-0.977,0
1578267606.973,31.738,43.945,134.277,68.359,96.680,0
1578267606.975,19.043,38.086,121.094,69.824,36.133,0
1578267606.979,17.090,32.715,114.258,60.059,-110.352,0
1578267606.983,20.508,46.875,133.789,80.078,-55.664,0
1578267606.987,24.414,54.688,146.973,91.797,80.078,0
1578267606.991,21.973,43.945,127.930,71.289,53.711,0
1578267606.995,18.066,31.250,111.816,44.922,-77.637,0
1578267606.999,14.160,28.809,124.512,36.621,-66.895,0
1578267607.002,8.301,31.250,144.531,55.176,51.758,0
1578267607.006,15.137,44.922,163.574,59.082,74.707,0
1578267607.010,35.645,42.480,139.160,59.570,-3.418,0
1578267607.014,42.480,42.480,123.535,56.152,-66.406,0
1578267607.018,35.156,49.316,137.207,55.176,9.766,0
1578267607.020,20.020,42.969,140.137,69.824,108.887,0
1578267607.024,16.602,31.250,115.234,61.523,37.598,0
1578267607.028,18.066,26.855,90.820,56.152,-54.199,0
1578267607.032,35.645,43.945,114.258,66.406,3.418,0
1578267607.036,34.180,46.387,125.977,62.988,80.078,0
1578267607.040,18.066,32.715,100.098,56.641,42.480,0
1578267607.044,14.160,27.344,77.148,33.691,-5.371,0
1578267607.047,4.883,40.527,101.562,41.992,-5.371,0
1578267607.051,25.879,47.852,139.160,63.965,68.359,0
1578267607.055,31.250,33.691,103.516,46.387,53.223,0
1578267607.059,2.441,33.203,95.215,45.410,-41.016,0
1578267607.063,5.859,35.156,124.512,47.852,-27.832,0
1578267607.065,8.789,37.109,133.301,45.898,36.133,0
1578267607.069,14.160,41.992,122.559,46.875,66.406,0
1578267607.073,20.020,34.668,109.375,45.410,-23.438,0
1578267607.077,10.742,26.855,125.488,41.504,-73.242,0
1578267607.081,0.488,27.832,133.789,44.434,13.184,0
1578267607.085,6.348,29.297,117.188,53.223,96.191,0
1578267607.089,25.391,29.785,109.863,64.453,38.086,0
1578267607.092,40.527,32.715,131.348,39.062,-55.664,0
1578267607.096,8.301,29.785,147.949,41.016,-1.953,0
1578267607.100,11.230,35.156,141.113,61.035,88.379,0
1578267607.104,30.273,44.434,125.000,52.246,47.852,0
1578267607.108,29.297,49.316,119.629,60.547,-42.969,0
1578267607.125,22.949,43.945,134.277,75.195,-46.875,0
1578267607.129,11.719,46.875,149.414,62.012,70.312,0
1578267607.133,15.137,46.875,130.859,41.016,100.098,0
1578267607.137,9.766,40.039,109.375,34.668,-14.160,0
1578267607.141,6.348,40.527,104.004,36.133,-73.242,0
1578267607.145,6.836,39.062,114.746,42.480,35.156,0
1578267607.149,11.719,34.180,130.859,38.574,112.305,0
1578267607.152,12.207,35.156,126.465,40.527,17.090,0
1578267607.156,18.066,37.598,116.699,54.199,-49.805,0
1578267607.160,32.715,48.340,130.371,60.547,12.695,0
1578267607.164,23.926,60.547,146.973,48.828,81.543,0
1578267607.168,15.625,50.293,138.184,37.598,43.457,0
1578267607.170,18.066,44.434,116.699,42.480,-45.898,0
1578267607.174,15.137,56.641,127.441,57.617,-35.156,0
1578267607.178,20.996,66.895,149.414,64.453,81.543,0
1578267607.182,22.949,59.570,119.141,53.223,56.152,0
1578267607.186,16.602,45.410,77.637,37.109,-36.133,0
1578267607.190,0.977,47.363,84.961,33.691,3.906,0
1578267607.194,22.461,52.734,121.582,56.152,82.031,0
1578267607.197,23.926,44.922,119.629,62.012,78.613,0
1578267607.201,4.395,26.855,77.148,47.852,-26.855,0
1578267607.205,16.602,34.668,93.750,53.223,-42.480,0
1578267607.209,12.695,63.965,143.555,53.223,44.922,0
1578267607.213,25.879,52.734,128.906,49.805,105.469,0
1578267607.215,26.855,36.133,101.074,43.945,28.809,0
1578267607.219,14.648,42.480,107.910,44.434,-66.895,0
1578267607.223,8.301,45.410,126.465,58.594,10.742,0
1578267607.227,10.254,42.969,125.000,58.594,115.723,0
1578267607.231,19.531,41.992,105.469,48.340,76.172,0
1578267607.235,22.461,41.504,95.215,46.387,-17.578,0
1578267607.239,19.531,47.852,119.141,48.828,8.789,0
1578267607.242,20.020,47.852,129.883,49.805,98.145,0
1578267607.246,39.062,36.133,104.004,43.457,55.664,0
1578267607.250,17.578,43.945,120.605,38.086,-34.180,0
1578267607.254,-11.230,46.875,139.648,33.691,-24.414,0
1578267607.258,-8.301,40.039,128.418,31.738,76.660,0
1578267607.260,20.020,43.945,126.465,49.805,124.023,0
1578267607.264,43.945,38.086,130.371,61.035,14.160,0
1578267607.268,11.719,27.344,136.719,57.129,-56.641,0
1578267607.272,-4.883,32.715,141.113,50.293,44.922,0
1578267607.276,18.066,37.598,135.254,41.992,112.793,0
1578267607.280,14.648,31.738,124.023,35.645,27.344,0
1578267607.284,-3.418,34.180,146.484,38.574,-43.457,0
1578267607.287,5.859,29.785,148.438,43.457,25.879,0
1578267607.291,26.367,24.902,139.160,59.570,70.312,0
1578267607.295,20.996,40.527,157.227,75.684,24.902,0
1578267607.299,14.160,39.062,135.742,42.969,-64.941,0
1578267607.303,23.926,35.156,138.672,35.156,-42.969,0
1578267607.305,3.418,40.039,158.691,57.129,76.660,0
1578267607.309,-1.953,40.039,145.996,48.340,60.059,0
1578267607.313,23.926,35.645,131.836,55.176,-37.598,0
1578267607.317,31.738,38.086,145.996,61.523,-58.594,0
1578267607.321,11.719,42.480,161.621,56.152,52.246,0
1578267607.325,18.066,38.086,140.625,60.059,103.516,0
1578267607.329,27.832,33.203,117.676,61.035,29.297,0
1578267607.332,24.414,27.832,104.980,48.340,-41.016,0
1578267607.336,11.719,45.410,136.230,47.363,38.574,0
1578267607.340,12.695,58.105,150.879,49.805,125.000,0
1578267607.344,34.180,36.133,112.305,46.875,45.898,0
1578267607.348,24.414,34.180,108.398,67.871,-21.484,0
1578267607.350,12.695,57.129,129.395,73.242,48.828,0
1578267607.354,10.254,60.547,136.230,53.711,107.910,0
1578267607.358,5.859,46.875,132.324,53.711,47.363,0
1578267607.362,10.742,43.945,115.723,41.016,-1.465,0
1578267607.366,29.297,50.781,107.422,35.645,8.789,0
1578267607.370,18.066,52.246,119.141,53.223,96.680,0
1578267607.374,35.645,45.410,104.004,51.270,105.469,0
1578267607.377,50.293,41.992,96.191,45.898,7.812,0
1578267607.381,35.645,46.387,133.301,50.781,8.789,0
1578267607.385,14.160,44.922,131.348,60.547,66.406,0
1578267607.389,10.742,46.875,131.348,56.152,132.812,0
1578267607.393,16.113,43.945,126.465,50.781,37.598,0
1578267607.395,7.324,43.945,110.840,56.152,-30.762,0
1578267607.399,7.324,47.363,112.305,62.988,62.012,0
1578267607.403,12.207,46.875,113.281,53.711,132.812,0
1578267607.407,25.391,44.922,104.492,55.176,68.848,0
1578267607.411,23.926,38.086,94.727,59.082,-48.340,0
1578267607.415,13.672,39.551,100.586,51.270,20.020,0
1578267607.419,6.348,41.016,98.633,51.270,106.445,0
1578267607.422,-3.906,36.133,94.238,46.387,79.102,0
1578267607.426,16.602,31.250,98.145,51.758,-25.879,0
1578267607.430,30.762,23.438,94.727,60.547,-71.777,0
1578267607.434,19.043,26.367,107.422,62.500,36.621,0
1578267607.438,31.250,24.902,109.863,64.941,63.477,0
1578267607.440,42.480,22.461,96.680,53.223,-11.719,0
1578267607.444,20.996,27.344,102.539,45.410,-58.594,0
1578267607.448,4.395,30.762,118.164,53.711,7.812,0
1578267607.452,11.719,26.855,113.281,51.758,64.941,0
1578267607.456,16.602,21.973,92.285,34.180,8.789,0
1578267607.460,6.348,17.578,82.520,50.781,-56.641,0
1578267607.464,8.301,28.809,104.980,73.242,-24.902,0
1578267607.467,18.066,40.527,134.766,62.988,79.590,0
1578267607.471,31.738,29.297,117.188,58.594,48.340,0
1578267607.475,35.645,29.785,107.422,61.035,-21.484,0
1578267607.479,10.742,39.062,125.977,57.617,32.227,0
1578267607.483,8.789,37.598,125.977,45.410,128.418,0
1578267607.500,13.184,19.043,96.191,22.461,102.539,0
1578267607.504,7.324,17.090,82.520,28.320,-36.133,0
1578267607.508,3.906,27.832,111.328,33.203,-10.254,0
1578267607.512,4.883,29.297,114.258,46.875,70.801,0
1578267607.516,-6.836,29.297,94.238,59.570,72.266,0
1578267607.520,-3.906,19.531,77.637,49.805,0.488,0
1578267607.524,23.926,19.531,93.262,39.062,-42.969,0
1578267607.527,14.160,36.133,124.023,52.734,53.223,0
1578267607.531,2.441,37.109,108.398,55.664,87.891,0
1578267607.535,8.789,28.320,88.867,31.250,0.000,0
1578267607.539,12.695,26.855,104.492,34.668,-33.203,0
1578267607.543,15.625,31.250,124.023,51.270,-0.488,0
1578267607.545,26.855,31.738,118.164,65.918,80.566,0
1578267607.549,43.457,25.879,106.934,64.453,60.059,0
1578267607.553,37.109,30.762,119.141,43.945,-39.551,0
1578267607.557,2.930,28.320,132.812,45.410,-30.762,0
1578267607.561,-18.555,21.973,128.906,52.734,72.754,0
1578267607.565,-9.766,18.555,106.445,44.434,89.844,0
1578267607.569,8.301,19.043,99.121,41.016,-32.715,0
1578267607.572,22.461,28.320,111.328,53.711,-75.684,0
1578267607.576,12.207,28.320,95.215,61.035,47.852,0
1578267607.580,11.230,24.902,79.102,50.781,91.797,0
1578267607.584,38.574,35.156,98.633,64.941,-25.879,0
1578267607.588,30.273,35.156,99.121,64.941,-89.844,0
1578267607.590,7.324,38.086,106.445,41.504,16.602,0
1578267607.594,26.367,40.039,113.281,40.039,88.867,0
1578267607.598,21.484,24.414,101.074,41.016,18.555,0
1578267607.602,10.254,16.602,98.633,41.992,-60.547,0
1578267607.606,15.625,26.855,110.840,56.152,-12.207,0
1578267607.610,17.578,28.320,107.422,53.711,102.051,0
1578267607.614,8.789,21.484,95.703,38.574,64.453,0
1578267607.617,-1.465,17.090,93.262,36.621,-51.758,0
1578267607.621,18.066,16.113,96.680,37.109,-47.852,0
1578267607.625,16.602,27.832,111.328,50.293,54.688,0
1578267607.629,-8.789,26.367,109.375,59.570,82.520,0
1578267607.633,9.277,10.254,80.078,36.133,-35.156,0
1578267607.635,17.090,10.254,75.684,26.367,-80.078,0
1578267607.639,-0.488,22.949,96.191,46.387,30.762,0
1578267607.643,8.789,21.973,96.191,48.340,91.309,0
1578267607.647,25.391,16.602,78.125,29.297,7.324,0
1578267607.651,2.930,20.020,76.172,47.363,-52.734,0
1578267607.655,6.836,29.785,95.703,64.941,29.297,0
1578267607.659,15.137,38.574,109.863,41.992,117.676,0
1578267607.662,9.766,28.809,77.148,26.855,39.551,0
1578267607.666,15.625,28.320,62.988,26.855,-72.266,0
1578267607.670,1.465,43.945,108.887,41.016,-15.137,0
1578267607.674,11.230,40.039,104.980,55.664,75.684,0
1578267607.678,7.812,33.691,79.590,52.734,46.875,0
1578267607.680,1.953,32.715,66.895,47.852,-29.297,0
1578267607.684,36.133,37.109,75.684,41.504,-29.785,0
1578267607.688,19.043,43.457,87.402,40.039,61.035,0
1578267607.692,-23.438,41.016,74.707,41.016,99.609,0
1578267607.696,9.277,32.227,64.453,37.109,-14.648,0
1578267607.700,21.484,34.180,71.777,40.527,-41.992,0
1578267607.704,8.789,40.527,89.355,41.504,69.824,0
1578267607.707,19.531,29.297,77.637,39.062,119.629,0
1578267607.711,21.973,32.227,69.336,46.875,47.363,0
1578267607.715,20.508,40.527,77.637,57.617,-78.125,0
1578267607.719,33.203,34.668,82.520,50.293,-11.230,0
1578267607.723,30.762,33.203,86.426,54.199,101.562,0
1578267607.725,-5.371,36.133,73.242,55.176,73.242,0
1578267607.729,-4.883,34.180,61.523,55.176,-13.184,0
1578267607.733,14.160,33.691,65.430,52.734,-5.859,0
1578267607.737,23.438,29.297,77.637,51.758,99.121,0
1578267607.741,18.066,18.555,79.590,62.988,101.074,0
1578267607.745,17.090,22.949,72.754,56.152,12.207,0
1578267607.749,15.137,20.020,58.594,46.387,-9.766,0
1578267607.752,2.930,11.230,56.641,26.367,64.941,0
1578267607.756,3.906,18.555,67.383,35.156,102.051,0
1578267607.760,16.113,16.113,58.594,45.410,-35.645,0
1578267607.764,7.812,14.160,67.871,39.551,-99.121,0
1578267607.768,10.742,21.973,76.660,45.410,18.066,0
1578267607.770,25.879,18.555,62.012,38.086,69.336,0
1578267607.774,18.066,11.719,46.875,38.086,-3.906,0
1578267607.778,8.301,13.184,60.059,41.504,-65.430,0
1578267607.782,5.859,19.531,91.309,42.480,-37.109,0
1578267607.786,8.301,23.926,108.398,55.176,49.316,0
1578267607.790,24.902,21.484,97.168,59.082,48.340,0
1578267607.794,23.926,13.184,69.824,54.688,-80.566,0
1578267607.797,17.090,25.879,98.145,63.965,-69.824,0
1578267607.801,12.695,40.039,139.648,62.012,85.449,0
1578267607.805,21.973,32.227,122.559,51.270,78.613,0
1578267607.809,34.180,27.832,103.516,48.828,-29.297,0
1578267607.813,27.832,27.344,103.027,60.547,-78.613,0
1578267607.815,9.277,31.250,121.094,69.336,21.484,0
1578267607.819,5.371,25.391,112.793,68.848,102.539,0
1578267607.823,10.254,20.020,86.426,72.266,5.859,0
1578267607.827,24.902,26.855,95.703,67.871,-59.082,0
1578267607.831,21.484,31.250,117.188,62.988,38.574,0
1578267607.835,21.484,24.902,98.145,62.500,99.121,0
1578267607.839,18.066,19.043,79.102,38.086,21.973,0
1578267607.842,10.742,27.344,101.562,40.039,-38.086,0
1578267607.846,28.809,38.574,112.305,66.895,-0.488,0
1578267607.850,33.203,41.504,101.074,66.406,98.145,0
1578267607.854,27.344,33.691,78.125,46.387,77.148,0
1578267607.858,4.395,29.297,77.148,44.434,-46.387,0
1578267607.875,2.441,33.203,99.121,58.105,-75.684,0
1578267607.879,12.207,40.039,118.652,55.664,71.289,0
1578267607.883,4.883,35.156,103.027,39.551,99.121,0
1578267607.887,4.395,26.367,81.543,33.691,-36.133,0
1578267607.891,7.324,30.762,91.309,42.480,-46.875,0
1578267607.895,2.441,29.297,88.379,52.734,55.664,0
1578267607.899,8.301,37.109,98.145,55.176,98.633,0
1578267607.902,12.207,47.852,114.258,49.316,42.480,0
1578267607.906,16.602,39.551,91.797,44.434,-40.039,0
1578267607.910,24.902,36.621,94.727,39.551,6.348,0
1578267607.914,25.879,41.504,114.258,45.410,95.215,0
1578267607.918,20.508,37.109,92.285,54.199,30.273,0
1578267607.920,38.574,30.273,59.082,55.664,-72.266,0
1578267607.924,34.180,44.434,60.059,52.734,-39.062,0
1578267607.928,14.648,55.664,79.102,44.434,62.988,0
1578267607.932,3.906,41.992,73.730,31.738,71.777,0
1578267607.936,5.859,28.809,62.012,40.527,-13.672,0
1578267607.940,23.926,36.133,73.242,72.754,-29.297,0
1578267607.944,11.719,49.316,87.891,55.664,64.941,0
1578267607.947,4.883,47.852,83.496,33.203,73.730,0
1578267607.951,19.531,32.715,66.895,43.945,-22.461,0
1578267607.955,17.090,32.715,72.754,50.293,-67.871,0
1578267607.959,22.949,53.711,110.352,54.688,17.090,0
1578267607.963,41.504,56.152,100.098,82.031,94.727,0
1578267607.965,41.016,51.758,61.523,78.125,32.715,0
1578267607.969,26.855,50.293,55.664,44.922,-54.688,0
1578267607.973,15.625,51.758,81.055,38.086,6.348,0
1578267607.977,16.602,53.223,88.867,63.965,98.145,0
1578267607.981,16.602,36.133,76.172,68.359,60.547,0
1578267607.985,19.531,32.715,62.500,35.645,18.066,0
1578267607.989,7.812,47.852,70.801,39.062,35.645,0
1578267607.992,-1.465,51.758,85.449,57.129,98.633,0
1578267607.996,27.344,38.574,56.641,60.059,109.863,0
1578267608.000,20.508,29.785,52.246,41.504,-4.395,0
1578267608.004,3.418,36.621,72.266,34.180,-33.203,0
1578267608.008,11.230,40.527,68.359,49.805,75.684,0
1578267608.010,12.695,35.156,62.012,52.246,122.559,0
1578267608.014,25.391,34.180,60.547,43.457,27.832,0
1578267608.018,23.438,36.133,67.871,52.734,-51.758,0
1578267608.022,5.859,33.203,75.684,58.594,35.645,0
1578267608.026,3.906,32.227,69.824,55.664,121.094,0
1578267608.030,23.438,31.738,50.293,44.434,19.043,0
1578267608.034,35.645,39.551,69.336,50.293,-76.172,0
1578267608.037,22.949,44.922,80.078,71.289,-10.742,0
1578267608.041,29.785,41.016,62.012,54.199,109.863,0
1578267608.045,17.578,40.527,49.805,34.668,54.199,0
1578267608.049,9.766,36.133,25.879,49.805,-81.055,0
1578267608.053,32.715,42.969,41.504,69.824,-49.316,0
1578267608.055,13.672,48.340,70.312,63.965,56.641,0
1578267608.059,-1.953,43.457,53.223,39.062,56.641,0
1578267608.063,6.836,38.574,40.039,27.832,-15.625,0
1578267608.067,9.277,42.480,60.059,29.785,-16.602,0
1578267608.071,21.484,45.410,77.148,53.223,70.801,0
1578267608.075,30.273,42.969,66.895,51.758,113.770,0
1578267608.079,16.602,39.062,61.035,42.480,38.086,0
1578267608.082,21.484,30.273,43.457,47.852,-32.227,0
1578267608.086,15.137,41.504,48.828,53.711,21.484,0
1578267608.090,4.883,52.734,66.406,48.340,136.719,0
1578267608.094,11.719,39.551,30.762,51.758,67.871,0
1578267608.098,14.160,35.645,26.367,59.570,-47.363,0
1578267608.100,13.672,47.363,51.758,54.688,8.789,0
1578267608.104,26.855,47.852,51.270,49.316,101.562,0
1578267608.108,25.391,37.109,32.227,55.664,83.984,0
1578267608.112,15.625,32.227,24.414,47.852,16.113,0
1578267608.116,2.441,35.645,27.832,32.715,-5.371,0
1578267608.120,14.160,36.133,39.551,47.852,66.406,0
1578267608.124,18.555,35.156,48.340,66.406,124.512,0
1578267608.127,10.742,25.391,33.203,46.875,40.527,0
1578267608.131,23.438,23.438,40.039,32.227,-50.781,0
1578267608.135,13.672,36.621,51.270,42.969,27.344,0
1578267608.139,21.973,39.551,37.598,48.828,131.836,0
1578267608.143,29.297,32.227,23.926,48.828,45.898,0
1578267608.145,20.508,34.668,37.598,63.477,-51.758,0
1578267608.149,5.371,35.156,51.270,64.941,10.742,0
1578267608.153,14.648,31.738,50.781,50.293,91.309,0
1578267608.157,20.508,23.926,41.016,48.340,76.660,0
1578267608.161,31.738,20.020,24.902,51.270,-32.715,0
1578267608.165,49.805,29.785,44.434,64.453,-15.625,0
1578267608.169,8.301,26.855,40.527,54.688,77.637,0
1578267608.172,-0.977,23.438,26.367,31.250,66.406,0
1578267608.176,12.207,25.391,18.066,41.504,-35.156,0
1578267608.180,7.324,28.320,16.113,64.453,-73.242,0
1578267608.184,5.859,36.133,48.828,59.082,45.410,0
1578267608.188,10.254,27.344,58.105,44.922,88.379,0
1578267608.190,11.230,18.066,30.273,44.922,-35.156,0
1578267608.194,22.461,24.902,26.855,57.617,-89.355,0
1578267608.198,27.832,31.738,57.617,63.477,15.625,0
1578267608.202,12.207,33.203,64.453,54.688,87.402,0
1578267608.206,23.438,30.762,39.062,46.387,20.996,0
1578267608.210,28.809,27.344,27.832,41.504,-83.496,0
1578267608.214,8.789,33.691,42.969,41.504,-22.461,0
1578267608.217,-1.953,43.457,61.523,48.828,97.168,0
1578267608.221,14.160,33.691,40.039,48.340,37.109,0
1578267608.225,28.320,30.273,33.203,33.203,-29.785,0
1578267608.229,13.672,34.180,50.781,58.105,7.324,0
1578267608.233,-2.930,31.250,49.805,69.336,71.289,0
1578267608.250,19.043,32.715,38.086,41.504,76.660,0
1578267608.254,27.832,36.621,28.320,39.551,-32.715,0
1578267608.258,-0.488,40.039,41.016,48.340,-44.922,0
1578267608.262,0.488,39.551,56.152,52.734,53.711,0
1578267608.266,12.207,37.598,52.246,53.223,100.098,0
1578267608.270,23.926,37.109,38.574,50.293,53.711,0
1578267608.274,22.461,41.992,48.340,65.918,-2.441,0
1578267608.277,16.602,51.270,77.637,82.031,59.082,0
1578267608.281,17.090,46.387,68.848,62.500,126.953,0
1578267608.285,11.719,33.203,21.973,48.340,47.363,0
1578267608.289,13.672,39.551,14.160,55.176,-60.059,0
1578267608.293,33.203,53.711,37.109,57.617,-23.438,0
1578267608.295,24.414,45.410,47.363,53.711,91.309,0
1578267608.299,8.789,36.621,45.410,48.340,83.496,0
1578267608.303,-2.441,36.621,33.203,32.715,-37.598,0
1578267608.307,-0.977,42.480,41.992,38.086,-50.781,0
1578267608.311,16.113,48.340,52.734,47.852,70.801,0
1578267608.315,10.254,38.574,46.387,53.223,145.508,0
1578267608.319,11.230,35.156,33.203,48.828,36.621,0
1578267608.322,16.602,40.039,30.762,57.617,-84.961,0
1578267608.326,14.160,45.898,40.527,62.988,-1.465,0
1578267608.330,16.602,54.688,50.781,59.570,93.750,0
1578267608.334,16.602,58.105,63.477,53.711,24.414,0
1578267608.338,17.578,51.758,55.664,43.945,-59.570,0
1578267608.340,3.418,43.457,56.152,37.598,-3.906,0
1578267608.344,-13.184,35.156,52.246,37.598,71.777,0
1578267608.348,21.973,39.551,41.016,42.480,34.180,0
1578267608.352,34.668,43.945,36.621,56.641,-49.805,0
1578267608.356,-0.977,39.551,37.598,46.387,-42.480,0
1578267608.360,-2.441,31.738,35.645,38.574,69.824,0
1578267608.364,12.695,33.691,32.227,47.363,82.031,0
1578267608.367,23.926,36.133,22.461,43.457,-33.691,0
1578267608.371,10.742,31.738,16.113,42.480,-73.242,0
1578267608.375,-4.883,45.898,55.664,41.992,20.020,0
1578267608.379,5.859,50.781,74.219,36.133,74.219,0
1578267608.383,2.930,39.551,41.504,42.969,-10.742,0
1578267608.385,0.000,37.598,33.691,39.551,-60.547,0
1578267608.389,7.812,48.340,52.246,34.180,22.949,0
1578267608.393,18.066,43.945,49.316,45.898,86.426,0
1578267608.397,27.832,28.320,36.621,45.898,42.969,0
1578267608.401,23.438,29.785,35.645,54.688,-31.738,0
1578267608.405,18.066,37.109,55.664,68.359,-1.953,0
1578267608.409,14.160,41.992,75.195,61.523,88.379,0
1578267608.412,26.855,35.645,49.316,52.246,38.086,0
1578267608.416,20.508,30.762,52.246,45.898,-62.012,0
1578267608.420,1.465,41.016,91.797,54.688,-51.270,0
1578267608.424,9.766,41.992,94.727,56.152,82.031,0
1578267608.428,26.367,35.645,76.172,60.059,86.426,0
1578267608.430,32.227,28.809,49.805,63.965,-41.992,0
1578267608.434,6.348,25.391,50.293,44.922,-70.801,0
1578267608.438,3.418,27.832,78.613,43.945,22.949,0
1578267608.442,12.695,30.762,79.102,43.945,85.449,0
1578267608.446,5.371,27.832,59.570,36.133,3.418,0
1578267608.450,0.488,21.973,57.129,39.062,-36.133,0
1578267608.454,10.742,28.809,75.195,53.711,37.598,0
1578267608.457,21.973,23.438,68.848,54.199,87.891,0
1578267608.461,20.996,17.090,54.199,41.504,26.855,0
1578267608.465,-5.859,23.926,54.688,22.949,-7.812,0
1578267608.469,-4.395,21.973,51.270,23.438,40.039,0
1578267608.473,12.695,25.879,55.664,47.852,118.164,0
1578267608.475,15.625,30.273,45.410,52.734,79.590,0
1578267608.479,8.301,25.391,35.156,38.086,-41.016,0
1578267608.483,6.348,23.438,39.062,49.805,-32.715,0
1578267608.487,4.395,29.785,44.434,52.734,88.379,0
1578267608.491,-10.742,20.508,18.555,38.574,87.402,0
1578267608.495,12.207,8.301,-7.324,29.785,-14.160,0
1578267608.499,25.391,11.719,16.602,32.227,-29.297,0
1578267608.502,8.789,22.949,42.969,42.480,50.293,0
1578267608.506,0.488,29.297,53.711,34.180,132.812,0
1578267608.510,-6.836,17.578,35.156,19.043,79.590,0
1578267608.514,-5.371,14.648,17.578,32.227,-29.297,0
1578267608.518,1.953,26.367,34.180,49.805,11.719,0
1578267608.520,11.230,30.273,55.176,43.945,98.633,0
1578267608.524,20.508,17.578,46.875,51.270,50.781,0
1578267608.528,19.531,10.254,34.180,58.105,-32.715,0
1578267608.532,25.391,20.508,43.457,49.805,-4.883,0
1578267608.536,13.184,24.414,56.152,56.152,87.402,0
1578267608.540,12.695,14.160,42.969,45.898,108.887,0
1578267608.544,14.160,6.348,17.578,37.598,-11.719,0
1578267608.547,-7.324,19.531,38.086,45.898,-58.105,0
1578267608.551,-1.465,34.180,66.406,40.039,43.945,0
1578267608.555,0.488,21.484,48.340,40.527,68.359,0
1578267608.559,17.578,16.602,35.645,38.086,-9.277,0
1578267608.563,21.973,16.602,42.480,43.457,-74.219,0
1578267608.565,14.160,21.484,57.129,58.594,9.766,0
1578267608.569,17.578,28.809,64.453,52.246,112.305,0
1578267608.573,10.742,24.414,46.387,44.922,30.273,0
1578267608.577,-0.977,22.461,18.066,41.016,-84.961,0
1578267608.581,18.066,22.949,24.902,55.176,-53.711,0
1578267608.585,43.457,22.461,38.574,73.730,73.730,0
1578267608.589,20.020,23.438,19.531,60.059,62.988,0
1578267608.592,2.441,28.320,34.668,45.410,-47.363,0
1578267608.596,8.301,25.879,46.875,44.434,-35.645,0
1578267608.600,31.250,32.227,49.316,49.805,66.406,0
1578267608.604,20.508,34.668,54.199,47.363,78.125,0
1578267608.608,7.324,29.297,40.527,34.180,-31.250,0
1578267608.625,19.531,25.391,32.227,53.223,-36.621,0
1578267608.629,2.441,28.320,47.363,69.336,114.746,0
1578267608.633,9.766,28.809,49.805,41.992,144.043,0
1578267608.637,15.625,18.555,35.645,30.762,10.254,0
1578267608.641,9.766,24.902,38.086,28.809,-42.480,0
1578267608.645,0.488,23.438,47.852,28.320,34.180,0
1578267608.649,-6.836,20.508,62.500,31.738,110.352,0
1578267608.652,4.883,22.461,49.805,25.391,67.383,0
1578267608.656,2.441,11.719,26.367,24.902,-14.160,0
1578267608.660,7.812,17.090,28.320,41.016,5.371,0
1578267608.664,30.273,32.715,55.176,43.457,73.730,0
1578267608.668,28.809,24.902,54.199,40.039,37.109,0
1578267608.670,12.695,13.184,23.926,31.250,-65.430,0
1578267608.674,2.930,21.484,44.434,33.691,-40.039,0
1578267608.678,-6.348,35.645,83.496,53.223,96.680,0
1578267608.682,-0.977,32.227,78.125,48.828,106.445,0
1578267608.686,16.113,17.578,44.922,44.922,-53.711,0
1578267608.690,31.250,19.531,47.852,44.434,-73.730,0
1578267608.694,29.785,20.996,80.078,54.199,51.270,0
1578267608.697,8.301,15.625,87.891,52.246,78.125,0
1578267608.701,-4.395,13.184,64.941,15.625,5.859,0
1578267608.705,-7.812,14.160,55.176,12.695,-66.895,0
1578267608.709,2.441,28.809,87.891,33.691,22.461,0
1578267608.713,14.160,26.367,97.656,39.062,110.352,0
1578267608.715,13.184,19.043,84.961,41.992,63.965,0
1578267608.719,-0.488,16.113,68.848,41.016,-15.625,0
1578267608.723,-7.812,16.602,72.754,34.180,4.395,0
1578267608.727,-5.371,17.578,70.801,32.227,106.934,0
1578267608.731,2.441,5.371,50.293,28.320,53.711,0
1578267608.735,8.789,0.977,49.316,27.832,-45.410,0
1578267608.739,0.977,15.625,72.266,55.664,-26.367,0
1578267608.742,1.953,23.926,86.426,61.035,79.590,0
1578267608.746,19.531,6.836,60.547,44.922,101.562,0
1578267608.750,22.461,6.836,59.570,35.156,24.902,0
1578267608.754,8.301,25.879,86.426,45.410,-9.766,0
1578267608.758,24.414,27.344,87.402,74.219,34.668,0
1578267608.760,31.250,22.461,67.383,76.660,83.984,0
1578267608.764,35.645,25.879,55.176,71.777,-13.184,0
1578267608.768,21.973,20.508,55.664,67.871,-87.402,0
1578267608.772,6.836,13.184,48.340,58.594,-19.531,0
1578267608.776,21.484,17.578,48.828,61.523,51.270,0
1578267608.780,33.691,11.230,46.387,71.289,18.555,0
1578267608.784,34.180,13.184,52.246,61.035,-47.363,0
1578267608.787,33.691,19.531,62.500,60.059,-36.133,0
1578267608.791,19.043,18.555,62.500,64.941,64.453,0
1578267608.795,8.789,23.438,47.852,53.223,45.410,0
1578267608.799,15.137,21.973,17.090,57.129,-57.129,0
1578267608.803,9.766,14.160,23.926,57.617,-65.918,0
1578267608.805,20.508,11.230,51.758,56.152,24.902,0
1578267608.809,51.758,27.344,61.035,63.477,76.172,0
1578267608.813,38.086,26.367,41.504,62.500,-21.484,0
1578267608.817,13.672,11.719,30.273,48.828,-70.801,0
1578267608.821,25.879,14.648,44.922,55.664,26.855,0
1578267608.825,12.695,16.602,51.270,65.918,78.125,0
1578267608.829,11.230,15.625,40.527,66.406,-20.508,0
1578267608.832,19.043,6.836,6.836,79.590,-97.168,0
1578267608.836,24.902,12.207,15.625,57.617,-24.902,0
1578267608.840,29.785,26.367,47.363,33.203,96.680,0
1578267608.844,24.414,15.625,20.996,44.922,56.641,0
1578267608.848,16.113,12.207,18.555,53.223,-77.637,0
1578267608.850,4.883,23.438,47.363,59.082,-45.898,0
1578267608.854,10.254,29.297,53.711,69.824,75.684,0
1578267608.858,31.250,23.926,39.062,58.105,69.824,0
1578267608.862,32.715,21.484,21.484,43.457,1.465,0
1578267608.866,26.855,26.367,33.691,52.734,-14.648,0
1578267608.870,18.555,25.879,52.734,64.941,62.988,0
1578267608.874,13.184,15.137,34.668,56.641,86.426,0
1578267608.877,9.277,16.113,10.742,34.668,-54.688,0
1578267608.881,4.395,33.203,32.715,31.738,-82.520,0
1578267608.885,8.301,33.203,43.945,50.293,29.785,0
1578267608.889,12.207,34.668,46.875,53.223,128.418,0
1578267608.893,23.926,32.227,41.016,64.941,83.496,0
1578267608.895,34.180,34.180,30.762,65.430,-26.367,0
1578267608.899,31.250,41.992,47.852,68.359,23.438,0
1578267608.903,24.414,41.504,51.758,74.219,93.750,0
1578267608.907,29.785,45.898,43.457,49.316,73.730,0
1578267608.911,22.949,40.527,28.809,41.504,-21.484,0
1578267608.915,20.996,42.480,33.203,56.152,-22.461,0
1578267608.919,28.809,48.828,47.852,57.617,103.027,0
1578267608.922,13.184,47.363,39.062,48.340,133.789,0
1578267608.926,12.695,46.387,25.879,51.758,18.555,0
1578267608.930,27.832,38.086,31.738,66.406,-36.133,0
1578267608.934,30.273,41.016,64.453,87.402,39.062,0
1578267608.938,7.812,47.852,66.895,61.035,83.496,0
1578267608.940,9.277,40.527,38.574,31.738,15.137,0
1578267608.944,14.160,38.574,26.367,53.223,-55.176,0
1578267608.948,-2.441,47.852,40.527,53.711,-6.836,0
1578267608.952,8.301,47.363,42.969,39.551,76.660,0
1578267608.956,31.250,37.109,32.715,56.152,19.043,0
1578267608.960,37.109,32.227,23.438,79.102,-55.176,0
1578267608.964,24.902,28.809,25.391,61.035,-39.062,0
1578267608.967,13.672,38.574,53.223,41.016,41.504,0
1578267608.971,8.789,37.598,51.270,50.293,58.105,0
1578267608.975,19.043,26.855,25.391,48.340,-49.805,0
1578267608.979,34.180,35.645,32.715,53.711,-67.383,0
1578267608.983,20.508,45.410,73.730,60.547,68.359,0
1578267609.000,13.184,39.062,68.848,58.105,105.957,0
1578267609.004,16.113,30.762,31.250,40.039,-18.555,0
1578267609.008,15.137,32.227,40.039,29.297,-27.344,0
1578267609.012,17.090,39.062,63.965,45.410,66.895,0
1578267609.016,30.273,43.457,44.922,51.270,91.309,0
1578267609.020,39.062,36.133,7.812,59.082,12.695,0
1578267609.024,14.648,26.367,16.602,68.848,-51.270,0
1578267609.027,8.789,34.180,54.199,52.246,13.184,0
1578267609.031,16.113,33.203,56.641,38.574,101.562,0
1578267609.035,11.230,17.578,34.180,30.762,56.641,0
1578267609.039,0.488,17.090,29.297,36.133,-42.969,0
1578267609.043,0.488,22.461,46.875,50.293,-2.930,0
1578267609.045,1.953,22.949,51.758,39.062,82.031,0
1578267609.049,1.953,26.855,51.270,40.039,97.656,0
1578267609.053,20.020,27.344,48.340,41.992,21.973,0
1578267609.057,21.973,30.273,52.246,51.758,-25.879,0
1578267609.061,15.137,31.250,57.617,65.430,60.547,0
1578267609.065,20.996,24.902,43.457,66.406,116.699,0
1578267609.069,22.461,25.879,39.062,50.293,13.672,0
1578267609.072,38.086,30.762,44.922,38.574,-38.086,0
1578267609.076,18.066,25.879,31.738,55.664,19.043,0
1578267609.080,3.906,20.508,35.156,61.523,63.965,0
1578267609.084,21.484,13.184,42.969,47.852,-3.906,0
1578267609.088,25.391,15.137,23.926,44.434,-131.348,0
1578267609.090,18.555,35.645,43.457,58.594,-54.199,0
1578267609.094,13.672,40.039,57.129,54.199,65.918,0
1578267609.098,17.090,33.203,38.574,50.293,20.996,0
1578267609.102,15.137,21.484,24.902,48.828,-82.520,0
1578267609.106,16.602,18.066,38.086,46.875,-53.711,0
1578267609.110,31.738,24.902,52.734,62.012,82.031,0
1578267609.114,12.207,26.855,46.875,54.688,102.051,0
1578267609.117,-2.930,24.414,38.574,43.945,4.395,0
1578267609.121,11.230,14.648,26.367,52.734,-7.324,0
1578267609.125,6.836,17.090,35.156,46.387,85.938,0
1578267609.129,3.906,21.484,33.691,40.527,114.746,0
1578267609.133,3.906,16.602,14.160,41.992,33.691,0
1578267609.135,11.719,22.461,21.973,44.922,-33.203,0
1578267609.139,10.254,29.297,41.992,52.246,50.781,0
1578267609.143,9.277,21.973,39.551,54.199,127.930,0
1578267609.147,20.020,8.789,23.438,35.156,41.992,0
1578267609.151,19.531,14.160,21.973,43.457,-71.289,0
1578267609.155,19.043,27.344,39.062,59.082,-38.086,0
1578267609.159,12.207,30.273,48.828,56.641,60.059,0
1578267609.162,24.902,25.391,22.949,40.039,24.414,0
1578267609.166,38.086,26.855,14.160,35.645,-4.883,0
1578267609.170,8.301,33.203,45.410,55.176,-8.789,0
1578267609.174,0.977,31.250,58.105,58.594,47.363,0
1578267609.178,4.395,33.691,41.504,47.363,94.727,0
1578267609.180,-1.465,30.273,22.949,27.344,2.930,0
1578267609.184,-1.465,31.738,32.227,33.691,-45.410,0
1578267609.188,12.207,36.621,48.828,57.617,3.906,0
1578267609.192,26.855,26.855,48.828,58.594,70.312,0
1578267609.196,12.207,17.090,34.180,39.551,19.531,0
1578267609.200,11.230,21.484,28.809,34.180,-73.730,0
1578267609.204,19.043,38.086,62.988,54.199,-18.555,0
1578267609.207,21.973,35.645,62.988,58.105,89.355,0
1578267609.211,17.090,27.832,42.969,39.551,24.902,0
1578267609.215,12.695,28.809,47.852,29.297,-61.523,0
1578267609.219,12.695,19.531,43.457,48.828,0.000,0
1578267609.223,-0.977,26.367,55.664,70.801,72.754,0
1578267609.225,17.090,30.762,42.969,49.316,41.992,0
1578267609.229,20.996,31.250,25.879,33.203,-41.992,0
1578267609.233,18.555,36.621,25.879,42.969,-43.457,0
1578267609.237,18.066,37.109,44.922,51.270,63.965,0
1578267609.241,7.812,37.109,51.758,46.875,92.285,0
1578267609.245,23.438,29.785,30.762,51.270,-6.348,0
1578267609.249,20.996,19.043,24.902,64.941,-38.086,0
1578267609.252,1.953,21.973,31.738,59.570,35.156,0
1578267609.256,11.719,40.527,55.664,51.270,70.312,0
1578267609.260,28.320,41.016,58.105,55.664,24.414,0
1578267609.264,21.484,38.574,38.574,52.246,-49.316,0
1578267609.268,14.160,49.805,50.293,51.758,5.371,0
1578267609.270,28.809,48.828,63.965,57.129,104.980,0
1578267609.274,36.133,34.668,40.527,62.012,51.270,0
1578267609.278,11.719,24.414,26.855,52.246,-48.828,0
1578267609.282,1.465,33.691,43.945,47.852,-22.461,0
1578267609.286,9.766,45.410,64.453,62.012,78.125,0
1578267609.290,-3.418,34.668,48.340,42.480,87.891,0
1578267609.294,9.277,21.484,8.789,23.438,4.883,0
1578267609.297,30.762,33.203,30.762,40.527,-13.184,0
1578267609.301,4.395,43.945,63.477,42.480,69.824,0
1578267609.305,-0.977,29.297,40.527,39.062,84.473,0
1578267609.309,21.484,23.926,32.715,41.504,-8.301,0
1578267609.313,29.785,32.227,42.969,54.199,-54.199,0
1578267609.315,18.066,41.504,49.805,70.801,20.020,0
1578267609.319,4.395,40.039,39.551,67.383,91.309,0
1578267609.323,20.020,35.156,20.508,42.969,50.781,0
1578267609.327,19.531,38.086,25.879,33.203,-32.715,0
1578267609.331,11.719,38.574,41.992,46.875,-10.254,0
1578267609.335,23.438,36.133,38.086,60.059,78.125,0
1578267609.339,21.484,34.180,26.367,57.617,47.852,0
1578267609.342,15.137,35.156,30.273,37.109,-77.637,0
1578267609.346,4.883,31.250,38.086,30.762,-49.805,0
1578267609.350,6.348,27.832,47.363,45.410,85.938,0
1578267609.354,9.766,31.738,46.387,52.734,110.840,0
1578267609.358,8.789,36.133,19.043,33.691,15.137,0
1578267609.375,15.137,38.086,18.066,41.016,-53.223,0
1578267609.379,17.578,33.691,47.363,67.871,57.617,0
1578267609.383,14.160,27.344,35.645,49.316,105.957,0
1578267609.387,8.789,22.949,18.066,38.574,19.043,0
1578267609.391,33.203,17.090,3.418,59.570,-60.059,0
1578267609.395,32.715,20.508,3.418,54.688,10.254,0
1578267609.399,22.949,29.785,31.738,33.203,111.328,0
1578267609.402,14.648,27.832,24.414,38.086,53.711,0
1578267609.406,0.488,28.320,9.277,42.480,-50.781,0
1578267609.410,5.859,35.645,28.320,45.898,-8.301,0
1578267609.414,-3.418,27.832,27.344,43.457,106.934,0
1578267609.418,6.348,20.020,17.090,45.410,74.707,0
1578267609.420,24.414,19.043,16.602,64.941,-29.785,0
1578267609.424,20.020,14.160,13.184,58.105,-38.574,0
1578267609.428,11.719,21.973,21.973,43.945,67.383,0
1578267609.432,11.230,26.367,15.625,54.688,83.496,0
1578267609.436,24.902,22.461,-3.418,55.176,-7.812,0
1578267609.440,25.879,29.785,0.000,39.062,-42.969,0
1578267609.444,12.695,35.645,18.555,39.551,48.340,0
1578267609.447,10.254,30.762,28.809,66.406,105.469,0
1578267609.451,23.926,19.043,8.301,64.941,17.090,0
1578267609.455,20.508,20.020,8.789,41.016,-29.297,0
1578267609.459,21.484,26.855,38.574,56.152,60.547,0
1578267609.463,15.625,22.461,40.039,53.711,138.184,0
1578267609.465,3.906,16.602,25.879,33.203,76.172,0
1578267609.469,12.207,13.672,8.789,32.227,-21.484,0
1578267609.473,32.715,21.973,20.996,56.641,25.391,0
1578267609.477,36.621,27.832,33.203,68.359,101.074,0
1578267609.481,16.602,20.508,22.949,38.574,84.473,0
1578267609.485,-1.465,14.648,9.766,39.551,15.625,0
1578267609.489,-4.883,28.320,20.996,47.363,-13.184,0
1578267609.492,6.348,35.645,46.387,47.363,62.500,0
1578267609.496,14.160,15.625,19.043,50.781,100.586,0
1578267609.500,17.578,12.207,8.789,36.133,34.668,0
1578267609.504,19.043,21.973,35.156,35.156,-16.113,0
1578267609.508,15.137,17.578,33.203,54.199,25.879,0
1578267609.510,8.789,13.672,25.879,49.805,111.328,0
1578267609.514,14.160,8.301,15.137,57.617,49.316,0
1578267609.518,4.395,14.160,19.531,60.547,-55.664,0
1578267609.522,3.418,27.832,35.156,58.105,27.344,0
1578267609.526,0.000,28.320,29.785,53.223,116.211,0
1578267609.530,-1.953,28.809,15.137,41.504,34.668,0
1578267609.534,0.488,36.133,14.160,48.828,-35.156,0
1578267609.537,8.789,32.227,11.719,49.316,0.000,0
1578267609.541,20.020,37.598,17.090,56.152,93.262,0
1578267609.545,7.324,50.293,35.645,67.383,71.777,0
1578267609.549,8.789,39.062,13.184,44.434,-66.406,0
1578267609.553,15.625,35.156,2.441,29.785,-96.680,0
1578267609.555,14.160,47.363,28.320,55.176,17.090,0
1578267609.559,11.230,49.805,32.227,58.594,78.613,0
1578267609.563,7.324,38.574,9.277,36.621,-19.531,0
1578267609.567,21.484,40.527,11.230,39.551,-65.918,0
1578267609.571,15.137,38.086,20.508,51.758,6.836,0
1578267609.575,0.977,32.715,20.508,45.898,81.543,0
1578267609.579,4.883,39.062,15.137,50.293,15.137,0
1578267609.582,18.066,30.273,-1.953,46.875,-106.445,0
1578267609.586,12.207,36.621,27.344,45.410,-45.898,0
1578267609.590,-2.930,48.340,50.781,60.547,78.125,0
1578267609.594,12.207,32.227,16.602,62.012,20.508,0
1578267609.598,27.832,24.414,5.859,51.758,-110.840,0
1578267609.600,19.043,35.645,31.738,60.547,-68.359,0
1578267609.604,25.391,43.457,44.922,64.453,62.988,0
1578267609.608,29.785,35.156,27.344,58.594,68.848,0
1578267609.612,-0.488,30.273,16.113,44.434,-20.020,0
1578267609.616,20.020,42.480,20.508,57.129,-33.203,0
1578267609.620,31.250,48.340,29.297,64.941,55.176,0
1578267609.624,11.719,36.133,29.297,48.828,104.492,0
1578267609.627,3.418,22.461,1.465,40.527,46.875,0
1578267609.631,16.113,38.574,13.672,32.227,-20.996,0
1578267609.635,26.855,52.734,41.992,53.223,30.762,0
1578267609.639,15.137,41.992,31.250,62.012,108.398,0
1578267609.643,24.414,31.738,13.672,48.828,37.109,0
1578267609.645,16.602,31.738,9.766,69.336,-72.754,0
1578267609.649,-2.441,37.109,21.973,67.383,-38.574,0
1578267609.653,11.230,37.598,30.762,40.039,54.199,0
1578267609.657,15.625,34.668,26.367,36.133,51.758,0
1578267609.661,18.555,33.203,9.277,31.250,-39.062,0
1578267609.665,20.508,36.621,6.836,43.457,-46.875,0
1578267609.669,10.742,37.598,15.625,48.340,62.988,0
1578267609.672,21.973,38.574,17.090,48.828,78.125,0
1578267609.676,13.184,37.109,18.555,54.199,-26.367,0
1578267609.680,2.930,37.109,17.090,60.059,-51.758,0
1578267609.684,16.113,48.340,25.391,60.059,23.438,0
1578267609.688,11.230,50.293,28.320,43.457,66.406,0
1578267609.690,0.488,46.875,14.160,44.434,11.230,0
1578267609.694,9.766,41.504,2.930,57.129,-73.730,0
1578267609.698,29.785,36.133,22.461,66.406,-2.441,0
1578267609.702,15.625,30.762,33.203,52.734,125.977,0
1578267609.706,6.836,31.250,17.090,50.781,57.617,0
1578267609.710,30.762,29.785,0.488,53.711,-64.453,0
1578267609.714,40.527,40.039,13.184,46.875,-25.391,0
1578267609.717,23.926,49.316,44.922,56.641,98.633,0
1578267609.721,23.926,34.180,23.438,63.477,56.152,0
1578267609.725,19.531,33.691,-0.488,59.570,-71.777,0
1578267609.729,-1.465,39.062,20.996,64.941,-55.664,0
1578267609.733,20.996,43.945,30.273,70.312,27.832,0
1578267609.750,40.039,52.734,24.414,77.637,80.566,0
1578267609.754,29.785,46.875,6.836,59.082,18.066,0
1578267609.758,14.648,40.527,-0.488,33.203,-41.992,0
1578267609.762,16.602,51.758,25.879,53.711,27.832,0
1578267609.766,16.113,57.129,35.645,65.918,110.840,0
1578267609.770,12.695,38.086,4.883,49.805,72.754,0
1578267609.774,25.391,43.457,3.418,52.246,-0.488,0
1578267609.777,28.809,54.199,37.598,60.547,38.086,0
1578267609.781,11.230,33.203,35.645,71.289,115.234,0
1578267609.785,11.719,24.902,19.043,64.941,92.773,0
1578267609.789,23.438,30.762,15.625,51.270,8.789,0
1578267609.793,17.578,39.062,22.949,49.805,10.254,0
1578267609.795,19.043,46.875,20.020,63.965,100.098,0
1578267609.799,20.020,41.016,4.883,65.430,97.168,0
1578267609.803,27.344,30.273,-7.324,50.781,-5.859,0
1578267609.807,19.531,27.344,0.000,54.199,-27.344,0
1578267609.811,18.555,25.879,21.484,63.477,64.453,0
1578267609.815,31.250,23.438,19.043,65.918,134.277,0
1578267609.819,25.391,34.668,13.184,55.176,61.035,0
1578267609.822,36.621,37.598,29.297,49.805,-7.324,0
1578267609.826,27.344,24.902,19.043,53.711,56.152,0
1578267609.830,23.438,27.344,12.695,48.340,124.023,0
1578267609.834,17.578,37.598,26.367,49.805,58.594,0
1578267609.838,3.418,34.668,16.602,51.758,-26.855,0
1578267609.840,16.113,37.598,30.762,47.363,20.508,0
1578267609.844,7.324,39.551,48.340,76.660,125.000,0
1578267609.848,27.344,35.156,28.809,66.406,94.727,0
1578267609.852,38.574,34.668,14.160,46.387,-28.320,0
1578267609.856,-8.789,37.109,26.367,57.617,-8.301,0
1578267609.860,0.488,35.645,20.996,54.688,128.418,0
1578267609.864,23.926,35.645,8.301,41.504,100.586,0
1578267609.867,18.066,36.621,8.301,31.250,-34.180,0
1578267609.871,13.672,28.809,3.906,41.504,-63.965,0
1578267609.875,21.484,41.016,34.180,48.828,27.344,0
1578267609.879,30.273,46.875,45.410,70.801,98.145,0
1578267609.883,11.719,28.320,3.418,71.777,29.297,0
1578267609.885,8.301,26.855,4.883,47.363,-45.410,0
1578267609.889,12.695,30.762,41.016,40.039,13.184,0
1578267609.893,2.930,30.762,34.180,44.922,83.496,0
1578267609.897,8.301,26.855,7.324,47.852,38.086,0
1578267609.901,19.531,22.461,0.488,50.293,-46.387,0
1578267609.905,22.461,27.832,4.395,59.570,-16.602,0
1578267609.909,19.531,36.621,20.020,60.059,98.145,0
1578267609.912,20.508,29.785,2.930,54.688,97.656,0
1578267609.916,14.160,21.484,-8.789,60.547,4.883,0
1578267609.920,20.020,35.156,24.414,67.383,-32.227,0
1578267609.924,12.695,38.574,24.902,49.805,57.129,0
1578267609.928,20.020,33.203,20.020,33.691,88.867,0
1578267609.930,32.715,32.715,16.113,47.852,-17.090,0
1578267609.934,11.230,39.551,20.020,48.340,-39.062,0
1578267609.938,-5.371,43.457,33.691,54.199,36.621,0
1578267609.942,-4.395,41.504,29.785,59.082,107.910,0
1578267609.946,0.000,34.180,12.695,52.734,26.855,0
1578267609.950,8.301,28.809,9.766,37.109,-57.129,0
1578267609.954,-0.488,38.086,25.879,36.133,31.738,0
1578267609.957,5.371,38.574,10.742,39.062,97.168,0
1578267609.961,56.152,30.273,10.254,41.016,53.711,0
1578267609.965,46.875,37.109,30.762,58.594,-40.039,0
1578267609.969,-4.883,43.945,25.391,64.453,-45.898,0
1578267609.973,-3.906,37.598,25.391,44.922,66.895,0
1578267609.975,22.949,33.203,24.414,43.457,88.379,0
1578267609.979,13.184,30.273,18.555,56.152,-24.414,0
1578267609.983,3.906,29.297,14.648,52.246,-52.734,0
1578267609.987,18.555,41.016,26.855,58.105,54.199,0
1578267609.991,14.160,39.551,32.227,53.223,87.402,0
1578267609.995,15.137,30.762,9.277,41.504,24.902,0
1578267609.999,21.973,38.086,4.883,56.641,-31.250,0
1578267610.002,15.625,43.945,11.719,56.152,10.254,0
1578267610.006,11.230,54.199,28.320,47.363,119.629,0
1578267610.010,14.648,49.316,15.137,43.945,55.664,0
1578267610.014,38.086,33.691,0.488,32.715,-59.570,0
1578267610.018,41.504,44.922,29.785,47.852,10.254,0
1578267610.020,14.160,51.758,41.504,64.941,83.496,0
1578267610.024,24.414,31.738,6.836,58.594,50.781,0
1578267610.028,21.484,16.113,-10.742,53.223,-54.199,0
1578267610.032,22.461,37.109,10.254,52.734,-27.344,0
1578267610.036,21.484,48.340,11.719,62.500,87.891,0
1578267610.040,36.621,42.969,-2.930,56.152,72.754,0
1578267610.044,33.203,32.715,-11.719,28.320,-10.742,0
1578267610.047,0.488,31.250,1.953,30.273,-32.227,0
1578267610.051,22.461,44.434,23.438,50.781,56.641,0
1578267610.055,16.113,34.668,-1.953,49.805,75.195,0
1578267610.059,17.090,32.227,-16.113,43.945,1.465,0
1578267610.063,20.508,46.875,-2.441,45.898,-58.105,0
1578267610.065,18.555,43.945,17.578,51.270,19.043,0
1578267610.069,32.227,31.250,22.949,57.617,114.746,0
1578267610.073,25.391,25.879,0.488,45.410,42.480,0
1578267610.077,12.695,29.785,-17.578,32.227,-42.480,0
1578267610.081,13.184,29.785,-1.465,46.875,-43.945,0
1578267610.085,27.344,28.809,5.371,64.453,55.176,0
1578267610.089,32.715,34.668,-4.395,54.688,66.406,0
1578267610.092,24.902,46.387,8.301,41.016,-50.781,0
1578267610.096,9.766,47.852,12.207,34.668,-44.434,0
1578267610.100,8.301,41.016,19.531,47.363,60.547,0
1578267610.104,38.086,35.156,23.926,65.430,80.078,0
1578267610.108,34.668,27.832,1.465,48.828,-40.527,0
1578267610.125,10.254,31.738,-0.977,48.340,-90.820,0
1578267610.129,26.855,32.227,17.578,58.594,31.738,0
1578267610.133,26.855,19.531,21.973,51.270,112.793,0
1578267610.137,13.672,16.602,5.859,44.922,15.137,0
1578267610.141,10.742,19.043,4.395,56.641,-59.082,0
1578267610.145,9.277,22.461,15.137,67.383,64.941,0
1578267610.149,7.812,28.320,25.391,46.387,158.203,0
1578267610.152,1.465,27.344,25.391,48.828,62.500,0
1578267610.156,18.555,19.043,0.488,45.898,-56.152,0
1578267610.160,21.484,20.508,-3.906,32.715,-10.742,0
1578267610.164,5.859,33.203,29.785,46.875,124.023,0
1578267610.168,7.324,32.227,29.297,70.801,94.727,0
1578267610.170,3.418,22.461,-5.859,47.852,-31.250,0
1578267610.174,11.719,29.785,2.441,37.598,-23.438,0
1578267610.178,17.090,36.621,30.762,60.547,38.086,0
1578267610.182,20.996,29.297,55.176,62.500,40.039,0
1578267610.186,19.531,22.949,38.574,53.711,4.883,0
1578267610.190,25.879,22.949,5.371,39.551,-41.504,0
1578267610.194,31.738,32.227,25.879,44.922,8.789,0
1578267610.197,5.371,37.109,43.457,59.082,85.449,0
1578267610.201,15.625,19.531,24.414,65.918,23.926,0
1578267610.205,46.387,17.578,22.949,45.410,-73.730,0
1578267610.209,27.344,37.109,57.129,49.316,-2.930,0
1578267610.213,-1.953,36.133,60.059,60.547,88.867,0
1578267610.215,10.742,30.273,46.875,53.711,25.391,0
1578267610.219,14.648,26.367,34.668,51.758,-65.430,0
1578267610.223,26.367,31.250,40.527,51.758,-14.648,0
1578267610.227,30.762,39.551,34.180,67.871,82.520,0
1578267610.231,15.137,32.715,36.621,60.059,75.684,0
1578267610.235,6.348,14.160,43.457,50.293,12.695,0
1578267610.239,7.324,22.461,44.922,45.898,0.977,0
1578267610.242,17.090,41.504,57.129,59.082,63.965,0
1578267610.246,44.922,28.809,47.363,91.309,76.660,0
1578267610.250,30.762,28.320,41.992,64.453,-18.555,0
1578267610.254,1.465,45.410,37.109,31.738,-72.754,0
1578267610.258,5.859,41.992,30.273,72.754,3.418,0
1578267610.260,27.344,40.039,30.762,85.938,106.445,0
1578267610.264,33.203,39.551,20.996,53.711,58.105,0
1578267610.268,5.859,36.621,6.836,43.457,-50.781,0
1578267610.272,10.742,44.922,8.301,53.711,6.836,0
1578267610.276,41.992,52.734,36.133,64.453,98.145,0
1578267610.280,29.785,39.062,35.156,59.570,89.844,0
1578267610.284,2.441,33.203,14.648,71.289,-22.461,0
1578267610.287,21.973,48.828,26.367,100.586,-49.316,0
1578267610.291,24.902,52.734,21.484,69.824,61.523,0
1578267610.295,14.648,50.293,16.113,31.738,88.379,0
1578267610.299,22.461,44.434,1.465,43.945,-16.602,0
1578267610.303,26.367,43.945,6.348,53.223,-49.316,0
1578267610.305,6.836,48.828,36.133,59.570,47.363,0
1578267610.309,7.324,47.852,41.504,64.453,92.285,0
1578267610.313,36.133,32.715,9.766,61.035,4.883,0
1578267610.317,18.555,30.762,-9.766,50.293,-64.453,0
1578267610.321,4.395,45.410,0.977,46.387,19.043,0
1578267610.325,31.250,51.758,12.207,61.523,126.465,0
1578267610.329,30.762,47.363,17.578,47.363,77.148,0
1578267610.332,36.133,42.480,-3.906,42.480,-44.434,0
1578267610.336,43.457,44.434,19.043,70.801,-10.742,0
1578267610.340,27.832,48.828,51.758,80.078,99.121,0
1578267610.344,22.461,43.945,16.602,46.387,65.430,0
1578267610.348,20.996,48.340,2.441,54.688,-41.504,0
1578267610.350,29.297,64.453,24.414,78.125,-39.062,0
1578267610.354,25.879,60.547,33.691,72.754,49.316,0
1578267610.358,29.785,39.551,11.230,57.129,61.523,0
1578267610.362,25.879,32.715,-2.441,52.246,-30.273,0
1578267610.366,25.879,41.016,27.832,52.734,-58.105,0
1578267610.370,42.480,44.922,39.062,61.523,26.367,0
1578267610.374,22.949,35.645,28.809,62.012,91.797,0
1578267610.377,6.836,23.926,18.066,38.086,21.973,0
1578267610.381,9.766,29.785,20.508,36.133,-51.758,0
1578267610.385,-4.395,33.203,29.785,54.688,2.930,0
1578267610.389,0.488,33.691,33.691,62.988,91.309,0
1578267610.393,34.180,36.621,35.645,59.082,57.617,0
1578267610.395,23.438,27.832,31.738,49.805,-57.617,0
1578267610.399,11.719,25.879,44.434,51.270,-21.484,0
1578267610.403,10.254,32.227,40.039,61.035,82.031,0
1578267610.407,0.977,32.715,15.625,43.457,64.453,0
1578267610.411,31.250,29.785,10.254,35.645,-36.621,0
1578267610.415,38.086,32.227,18.066,61.523,-51.270,0
1578267610.419,6.348,37.109,19.043,67.871,59.082,0
1578267610.422,0.488,41.016,23.926,51.270,97.656,0
1578267610.426,9.766,32.715,30.273,35.645,3.906,0
1578267610.430,12.207,19.531,13.184,43.457,-83.008,0
1578267610.434,7.812,28.320,30.762,58.594,11.230,0
1578267610.438,7.324,28.320,40.527,43.945,98.145,0
1578267610.440,8.789,22.949,21.484,29.785,28.320,0
1578267610.444,9.277,29.785,20.508,45.410,-35.156,0
1578267610.448,23.438,41.992,36.621,51.758,13.184,0
1578267610.452,22.949,44.434,30.762,52.246,121.094,0
1578267610.456,16.113,34.668,16.113,53.223,94.238,0
1578267610.460,17.090,27.832,13.672,43.457,-17.090,0
1578267610.464,16.113,34.668,22.461,52.246,19.043,0
1578267610.467,16.113,38.574,38.574,51.270,131.836,0
1578267610.471,4.395,37.598,35.645,47.363,110.840,0
1578267610.475,0.488,38.086,15.137,50.781,14.648,0
1578267610.479,6.348,42.969,10.742,47.852,-20.020,0
1578267610.483,-1.465,52.246,33.691,54.199,62.500,0
1578267610.500,10.254,49.316,34.180,62.012,114.746,0
1578267610.504,15.137,38.086,18.066,59.570,30.762,0
1578267610.508,13.672,32.715,8.789,43.457,-38.574,0
1578267610.512,17.090,37.598,16.602,44.922,39.551,0
1578267610.516,14.648,41.504,35.645,49.805,131.348,0
1578267610.520,13.672,34.180,19.531,33.691,71.777,0
1578267610.524,43.945,33.691,7.812,39.062,-26.367,0
1578267610.527,47.852,43.457,40.039,48.340,12.207,0
1578267610.531,-1.465,44.922,56.152,46.387,119.141,0
1578267610.535,-1.953,38.086,22.949,40.039,76.660,0
1578267610.539,5.859,35.645,1.953,39.062,-57.129,0
1578267610.543,2.441,44.434,25.879,61.035,-51.758,0
1578267610.545,13.672,54.688,38.574,71.777,62.988,0
1578267610.549,11.230,50.293,15.625,49.805,76.660,0
1578267610.553,12.207,49.316,1.465,43.457,-55.664,0
1578267610.557,33.203,46.875,11.719,68.848,-101.074,0
1578267610.561,36.133,46.387,17.578,72.266,-9.277,0
1578267610.565,16.113,46.875,19.531,62.012,57.129,1
1578267610.569,14.648,41.016,9.766,46.875,1.953,0
1578267610.572,32.227,43.945,8.301,39.551,-72.754,0
1578267610.576,25.879,41.016,10.254,51.758,0.000,0
1578267610.580,-1.465,41.504,7.324,50.293,93.262,0
1578267610.584,-0.488,46.387,20.020,37.109,56.152,0
1578267610.588,8.789,34.180,12.207,29.297,-34.180,0
1578267610.590,13.184,32.227,19.531,41.504,-33.691,0
1578267610.594,27.832,40.039,48.340,65.430,69.824,0
1578267610.598,26.855,30.762,31.250,59.570,105.957,0
1578267610.602,25.879,33.691,1.953,54.199,-9.766,0
1578267610.606,41.504,47.852,13.184,77.148,-52.734,0
1578267610.610,32.227,38.086,31.250,68.359,90.820,0
1578267610.614,13.672,24.902,20.508,41.504,132.812,0
1578267610.617,3.906,25.391,-1.465,48.828,4.395,0
1578267610.621,15.137,32.227,-1.465,56.641,-43.457,0
1578267610.625,18.066,43.945,28.320,49.316,62.500,0
1578267610.629,12.207,47.852,27.832,55.176,131.348,0
1578267610.633,14.160,32.227,-3.906,50.781,15.137,0
1578267610.635,32.227,35.156,-7.812,45.410,-66.406,0
1578267610.639,32.715,48.828,15.625,60.059,3.418,0
1578267610.643,8.301,41.016,36.621,59.082,77.637,0
1578267610.647,9.766,30.762,31.738,41.016,42.480,0
1578267610.651,24.414,29.785,12.207,56.152,-49.316,0
1578267610.655,20.996,31.738,13.184,78.125,-20.020,0
1578267610.659,21.484,34.180,25.391,59.570,72.754,0
1578267610.662,32.227,35.645,8.301,49.316,41.016,0
1578267610.666,24.414,33.691,-4.883,49.316,-45.410,0
1578267610.670,-0.488,42.480,5.859,39.062,-72.266,0
1578267610.674,-2.930,47.363,20.996,51.270,34.180,0
1578267610.678,-2.930,37.598,26.367,44.922,75.195,0
1578267610.681,15.137,39.062,19.531,34.180,-36.621,0
1578267610.685,31.738,50.293,22.461,57.617,-93.750,0
1578267610.689,24.902,47.363,33.691,53.223,2.441,0
1578267610.693,23.438,40.527,27.344,43.457,85.449,0
1578267610.697,19.043,40.527,14.160,42.969,10.742,0
1578267610.701,24.414,52.734,27.832,48.828,-79.590,0
1578267610.705,18.555,57.129,41.992,63.965,-29.785,0
1578267610.708,-9.766,35.156,8.789,40.039,78.125,0
1578267610.712,-1.953,33.691,-6.836,31.738,65.430,0
1578267610.716,23.926,50.293,9.277,36.133,-36.133,0
1578267610.720,18.066,45.898,17.090,43.945,-42.969,0
1578267610.724,7.812,45.898,23.438,57.129,32.715,0
1578267610.725,10.742,54.199,30.762,54.199,50.293,0
1578267610.729,10.254,50.781,30.273,47.852,-34.180,0
1578267610.733,20.996,41.992,11.230,62.012,-87.891,0
1578267610.737,33.203,41.992,15.625,64.941,13.672,0
1578267610.741,27.832,45.898,20.996,69.336,68.848,0
1578267610.745,5.371,35.645,2.930,59.570,-6.348,0
1578267610.749,15.137,30.762,-2.441,49.316,-76.172,0
1578267610.752,28.320,42.969,20.508,66.895,-14.160,0
1578267610.756,8.789,50.293,50.293,52.734,92.285,0
1578267610.760,2.930,36.621,32.227,29.297,32.715,0
1578267610.764,13.672,32.715,9.277,34.180,-47.852,0
1578267610.768,21.484,42.969,22.949,53.223,25.391,0
1578267610.770,19.043,46.387,34.180,75.195,112.793,0
1578267610.774,12.695,30.762,19.043,62.012,84.961,0
1578267610.778,11.230,23.438,7.324,50.781,-9.766,0
1578267610.782,21.484,35.156,33.691,62.500,-17.578,0
1578267610.786,13.184,31.738,37.598,56.152,70.801,0
1578267610.790,10.742,22.949,16.113,40.039,98.633,0
1578267610.794,18.066,19.043,-5.859,34.180,15.137,0
1578267610.797,3.418,25.391,-0.977,38.086,-31.738,0
1578267610.801,12.695,41.504,30.273,57.617,58.594,0
1578267610.805,19.531,38.086,23.926,57.617,100.098,0
1578267610.809,10.742,34.668,15.137,43.457,57.617,0
1578267610.813,-0.977,35.645,15.625,48.340,-14.160,0
1578267610.815,4.395,29.297,14.648,58.594,-18.066,0
1578267610.819,11.719,30.762,10.742,51.758,58.105,0
1578267610.823,8.789,30.762,-2.441,41.016,37.598,0
1578267610.827,9.766,31.738,-4.395,45.410,-56.641,0
1578267610.831,10.742,40.527,19.531,52.734,-24.414,0
1578267610.835,13.672,39.062,25.391,62.988,83.984,0
1578267610.839,-0.488,34.668,12.207,47.852,59.082,0
1578267610.842,11.230,38.086,27.832,30.273,-36.621,0
1578267610.846,13.672,43.457,41.016,46.387,-23.438,0
1578267610.850,6.348,43.457,25.879,54.688,51.270,0
1578267610.854,4.395,30.762,8.789,52.246,71.289,0
1578267610.858,7.812,35.156,6.836,50.293,-12.207,0
1578267610.875,13.672,47.852,6.348,48.340,-83.008,0
1578267610.879,14.160,43.457,12.695,53.223,16.113,0
1578267610.883,32.227,41.992,21.973,60.059,104.004,0
1578267610.887,36.621,44.922,19.043,51.758,21.484,0
1578267610.891,11.230,37.598,1.953,41.992,-60.547,0
1578267610.895,16.113,36.621,6.836,59.570,21.973,0
1578267610.899,23.926,41.504,14.160,66.895,113.281,0
1578267610.902,18.066,39.551,2.441,55.176,34.668,0
1578267610.906,4.883,41.016,8.789,47.363,-59.082,0
1578267610.910,4.883,37.598,1.465,41.992,-6.836,0
1578267610.914,18.066,43.945,7.324,50.293,92.773,0
1578267610.918,26.855,53.711,18.066,54.688,87.891,0
1578267610.920,23.438,41.992,0.000,39.062,-49.805,0
1578267610.924,14.648,40.527,2.441,43.945,-75.684,0
1578267610.928,27.832,52.246,26.367,49.805,74.707,0
1578267610.932,25.879,51.758,26.855,53.223,121.094,0
1578267610.936,23.438,43.457,8.301,73.242,6.836,0
1578267610.940,27.344,37.109,9.766,69.336,-49.805,0
1578267610.944,17.578,42.480,29.785,50.781,52.734,0
1578267610.947,4.883,49.316,22.949,42.969,114.746,0
1578267610.951,19.043,45.898,-13.184,43.457,39.551,0
1578267610.955,24.414,42.480,-3.906,50.293,-56.152,0
1578267610.959,40.527,56.152,49.805,66.406,-12.695,0
1578267610.963,41.016,60.059,58.594,83.008,102.051,0
1578267610.965,20.508,48.828,24.414,68.359,68.848,0
1578267610.969,25.879,38.086,7.324,50.293,-34.668,0
1578267610.973,25.391,40.527,30.273,67.383,-47.363,0
1578267610.977,26.855,46.387,39.551,64.453,64.941,0
1578267610.981,32.227,42.480,15.625,41.504,119.629,0
1578267610.985,27.832,36.621,-6.836,36.621,6.836,0
1578267610.989,18.555,47.852,12.207,45.410,-31.250,0
1578267610.992,25.391,53.223,35.645,72.754,50.781,0
1578267610.996,25.391,34.668,8.789,67.871,91.309,0
1578267611.000,44.922,36.133,-1.465,37.109,19.531,0
1578267611.004,34.668,46.875,13.672,39.062,-88.379,0
1578267611.008,9.277,48.340,22.949,58.105,-24.414,0
1578267611.010,21.973,45.898,28.809,64.453,98.145,0
1578267611.014,27.832,39.062,19.531,56.152,40.039,0
1578267611.018,21.973,42.480,8.301,58.594,-67.871,0
1578267611.022,11.719,49.805,14.160,63.477,-24.414,0
1578267611.026,23.438,42.480,27.832,73.730,66.406,0
1578267611.030,34.668,34.668,18.066,59.570,52.246,0
1578267611.034,16.602,34.180,5.371,38.574,-42.480,0
1578267611.037,-2.441,29.297,6.348,42.969,-76.660,0
1578267611.041,-1.953,30.273,14.160,39.062,26.855,0
1578267611.045,24.902,39.062,21.484,41.016,56.152,0
1578267611.049,33.691,29.785,9.277,53.223,-36.133,0
1578267611.053,7.812,24.414,12.207,54.688,-62.012,0
1578267611.055,1.465,36.133,28.320,52.246,34.668,0
1578267611.059,18.555,35.645,25.391,59.082,70.312,0
1578267611.063,34.668,38.086,6.348,57.129,-25.391,0
1578267611.067,22.461,37.109,-0.488,48.828,-65.430,0
1578267611.071,11.230,29.297,4.883,55.664,2.930,0
1578267611.075,29.785,32.715,8.789,56.641,83.496,0
1578267611.079,19.531,33.203,15.625,55.664,27.832,0
1578267611.082,7.324,22.461,-0.977,37.598,-88.867,0
1578267611.086,12.695,30.273,21.973,24.414,-12.207,0
1578267611.090,11.719,42.969,44.434,36.621,96.191,0
1578267611.094,24.414,35.156,10.254,39.551,44.434,0
1578267611.098,25.879,34.180,-4.395,43.945,-62.500,0
1578267611.100,7.812,44.434,16.113,54.688,-71.289,0
1578267611.104,19.531,48.340,37.598,58.594,48.340,0
1578267611.108,18.066,37.109,20.996,44.922,74.707,0
1578267611.112,8.301,31.250,1.953,49.316,-34.180,0
1578267611.116,26.855,38.086,7.324,63.477,-82.520,0
1578267611.120,17.090,41.504,18.066,49.316,5.371,0
1578267611.124,26.367,39.551,7.324,50.293,76.172,0
1578267611.127,30.762,32.227,-7.812,41.504,7.812,0
1578267611.131,7.812,34.180,15.625,44.922,-68.848,0
1578267611.135,19.043,43.457,34.180,68.359,14.160,0
1578267611.139,24.902,41.992,24.902,55.176,104.980,0
1578267611.143,10.742,35.156,19.043,47.852,76.172,0
1578267611.145,15.625,28.809,16.113,53.711,0.977,0
1578267611.149,12.207,36.133,16.113,52.246,7.812,0
1578267611.153,14.648,44.922,29.297,48.340,100.586,0
1578267611.157,29.297,36.621,31.250,50.293,118.164,0
1578267611.161,25.879,29.785,16.113,54.688,21.973,0
1578267611.165,12.207,32.715,18.066,47.363,-20.020,0
1578267611.169,23.438,36.621,32.715,53.711,85.938,0
1578267611.172,33.203,38.086,35.645,56.152,119.629,0
1578267611.176,13.184,30.273,22.949,45.898,33.203,0
1578267611.180,5.859,21.973,11.719,50.781,-7.324,0
1578267611.184,11.230,25.879,18.555,52.734,25.391,0
1578267611.188,16.113,29.785,20.508,47.363,75.195,0
1578267611.190,20.020,24.902,13.184,60.547,25.391,0
1578267611.194,15.137,22.461,14.648,53.223,-55.176,0
1578267611.198,18.066,29.297,24.902,39.062,8.789,0
1578267611.202,9.277,35.156,25.391,43.457,78.125,0
1578267611.206,5.859,31.738,14.648,32.715,87.402,0
1578267611.210,53.223,29.297,-3.906,44.434,15.137,0
1578267611.214,44.922,35.156,12.695,73.730,10.254,0
1578267611.217,5.371,41.504,44.434,78.613,122.559,0
1578267611.221,16.602,44.922,26.855,46.875,108.887,0
1578267611.225,15.137,32.715,-6.348,30.762,-2.930,0
1578267611.229,0.000,25.391,-6.348,34.180,-21.484,0
1578267611.233,5.371,39.551,18.555,43.945,47.852,0
1578267611.250,17.090,39.062,17.578,48.340,90.820,0
1578267611.254,7.812,28.320,-6.348,38.086,31.250,0
1578267611.258,4.883,34.668,-15.137,24.414,-41.504,0
1578267611.262,20.508,51.758,6.348,34.180,26.855,0
1578267611.266,17.578,54.688,13.672,41.504,108.398,0
1578267611.270,11.719,39.062,-4.395,36.133,75.684,0
