timestamps,TP9,AF7,AF8,TP10,Right AUX,Marker0
1578178698.834,12.207,32.715,-53.223,51.758,-13.184,0
1578178698.838,-12.695,36.621,-47.852,48.340,9.766,0
1578178698.842,-16.113,36.621,-29.785,48.828,32.227,0
1578178698.846,-3.906,36.133,-30.273,59.082,-14.648,0
1578178698.850,13.184,38.574,-34.180,53.223,40.039,0
1578178698.854,10.742,38.086,-26.855,53.223,69.336,0
1578178698.858,2.930,38.574,-8.789,46.875,29.297,0
1578178698.861,21.973,33.691,-2.441,38.574,0.977,0
1578178698.865,36.133,34.180,-18.066,46.387,22.461,0
1578178698.869,-7.812,33.691,-19.043,45.898,54.688,0
1578178698.873,-35.156,36.133,15.137,40.527,76.172,0
1578178698.877,-5.859,43.945,15.625,47.852,32.227,0
1578178698.879,28.809,43.945,4.395,47.363,11.230,0
1578178698.883,9.766,37.109,3.906,52.734,24.414,0
1578178698.887,-23.438,27.344,15.137,50.293,34.668,0
1578178698.891,-16.113,14.160,6.836,43.457,53.223,0
1578178698.895,23.926,16.113,-5.371,62.500,93.262,0
1578178698.899,27.344,20.996,-20.020,59.082,79.590,0
1578178698.903,-16.113,20.508,-10.254,46.875,60.059,0
1578178698.906,-12.207,21.484,2.930,44.434,23.438,0
1578178698.910,27.832,20.020,-26.855,39.062,0.977,0
1578178698.914,16.602,27.344,-13.184,55.176,19.531,0
1578178698.918,-14.648,35.156,20.508,51.270,18.555,0
1578178698.922,-25.879,25.391,12.207,34.180,21.973,0
1578178698.924,-14.160,17.090,4.395,42.480,56.641,0
1578178698.928,14.648,11.230,7.324,52.246,10.742,0
1578178698.932,9.766,1.465,11.719,51.758,-7.812,0
1578178698.936,-27.344,0.488,6.836,42.969,55.176,0
1578178698.940,-11.719,5.371,5.859,48.340,57.129,0
1578178698.944,25.879,16.113,7.324,65.430,18.555,0
1578178698.948,22.949,28.320,21.484,68.359,26.855,0
1578178698.951,3.418,31.738,20.996,61.523,51.758,0
1578178698.955,4.395,25.391,8.301,50.781,50.293,0
1578178698.959,10.254,29.785,20.508,58.594,-15.625,0
1578178698.963,14.160,39.062,14.648,60.059,-21.973,0
1578178698.967,-5.371,39.551,12.207,49.805,37.598,0
1578178698.969,-11.230,34.668,9.766,62.500,24.902,0
1578178698.973,20.020,35.645,1.465,68.359,12.207,0
1578178698.977,36.621,35.156,-12.695,52.246,58.594,0
1578178698.981,12.695,30.273,-5.859,46.875,78.125,0
1578178698.985,-14.160,27.344,13.184,57.129,71.777,0
1578178698.989,-5.371,22.461,3.418,59.082,56.641,0
1578178698.993,22.949,20.996,10.254,54.688,43.945,0
1578178698.996,13.672,26.855,13.184,55.664,76.660,0
1578178699.000,-11.230,40.039,38.574,60.059,47.363,0
1578178699.004,-3.906,37.598,60.547,44.434,2.930,0
1578178699.008,27.832,24.414,31.738,34.180,43.945,0
1578178699.012,15.625,21.973,22.461,45.898,0.977,0
1578178699.014,-14.160,32.715,47.852,47.852,-2.441,0
1578178699.018,0.977,24.414,56.641,52.246,22.949,0
1578178699.022,34.180,20.996,34.668,48.340,3.418,0
1578178699.026,33.203,33.203,31.250,49.316,49.316,0
1578178699.030,0.977,33.691,39.062,62.012,-0.977,0
1578178699.034,-7.812,41.504,41.504,62.988,-14.648,0
1578178699.038,7.324,53.223,23.926,64.453,28.809,0
1578178699.041,27.832,54.199,19.531,50.781,33.691,0
1578178699.045,11.719,47.363,56.152,33.203,42.969,0
1578178699.049,-17.578,51.270,44.434,36.621,-9.766,0
1578178699.053,3.418,51.758,28.809,50.781,13.672,0
1578178699.057,29.785,46.387,25.879,60.059,-11.230,0
1578178699.059,16.113,49.316,28.809,52.246,-37.598,0
1578178699.063,6.348,44.434,34.668,58.594,38.086,0
1578178699.067,6.836,44.434,31.738,63.965,57.617,0
1578178699.071,20.996,52.246,21.484,44.922,33.691,0
1578178699.075,20.508,40.039,15.137,50.293,13.672,0
1578178699.079,-19.043,24.902,20.020,55.176,30.762,0
1578178699.083,-2.930,26.855,8.301,44.434,45.898,0
1578178699.086,33.691,34.180,21.973,44.434,49.805,0
1578178699.090,6.836,35.645,41.992,57.129,45.410,0
1578178699.094,-10.742,34.180,28.320,65.430,43.457,0
1578178699.098,-5.371,32.715,34.668,66.406,83.496,0
1578178699.102,4.395,32.715,29.297,55.176,34.668,0
1578178699.104,9.277,36.133,23.926,44.434,-39.551,0
1578178699.108,4.883,38.086,26.855,50.293,32.715,0
1578178699.112,-6.348,38.574,30.273,63.965,45.410,0
1578178699.116,9.766,44.922,41.992,58.105,8.301,0
1578178699.120,37.109,33.691,27.344,37.598,34.668,0
1578178699.124,26.367,18.066,2.441,36.621,64.941,0
1578178699.128,-18.555,23.438,12.207,44.434,95.703,0
1578178699.131,-15.625,30.762,48.340,56.641,57.617,0
1578178699.135,20.020,32.715,46.387,50.293,13.184,0
1578178699.139,20.020,42.969,31.250,34.180,26.367,0
1578178699.143,2.441,58.105,34.668,36.621,17.090,0
1578178699.147,0.488,49.805,43.457,53.223,-0.977,0
1578178699.164,5.859,33.203,26.367,52.734,29.785,0
1578178699.168,11.719,32.227,20.996,51.758,40.039,0
1578178699.172,5.859,38.086,33.203,53.711,-5.859,0
1578178699.176,-4.883,37.109,30.762,45.410,22.461,0
1578178699.180,10.254,41.504,11.719,44.922,13.184,0
1578178699.184,31.738,46.875,-6.836,49.805,53.711,0
1578178699.188,-2.930,44.922,0.000,43.457,59.082,0
1578178699.191,-31.250,39.062,14.648,39.062,-27.832,0
1578178699.195,-6.836,36.133,5.371,38.086,-45.410,0
1578178699.199,22.949,32.227,-26.367,27.832,-15.137,0
1578178699.203,21.484,28.809,-5.371,38.574,25.391,0
1578178699.207,6.348,22.461,17.578,56.152,-37.109,0
1578178699.209,-1.465,10.254,-4.883,46.875,-98.145,0
1578178699.213,2.930,15.137,-11.230,44.434,-57.617,0
1578178699.217,15.625,32.227,2.930,68.359,-35.156,0
1578178699.221,-12.695,34.180,-3.906,66.895,-4.883,0
1578178699.225,-24.902,26.855,-10.742,42.969,-1.465,0
1578178699.229,17.578,24.414,-5.859,35.156,20.508,0
1578178699.233,30.762,34.180,4.395,39.062,19.043,0
1578178699.236,-0.488,27.344,17.578,39.551,5.371,0
1578178699.240,-9.277,15.625,-6.348,36.133,-8.301,0
1578178699.244,6.836,26.367,-12.695,44.922,15.625,0
1578178699.248,16.602,29.785,6.348,48.340,15.625,0
1578178699.252,2.930,28.320,-2.441,41.992,-20.508,0
1578178699.254,-7.812,35.156,4.883,57.129,41.016,0
1578178699.258,9.277,24.414,1.465,62.988,43.945,0
1578178699.262,16.113,16.113,-4.883,59.570,5.371,0
1578178699.266,15.137,25.391,0.000,59.570,-32.227,0
1578178699.270,-2.441,30.762,14.648,61.035,-20.020,0
1578178699.274,2.930,21.484,20.996,61.035,55.176,0
1578178699.278,28.809,9.766,11.230,68.848,3.418,0
1578178699.281,16.113,8.301,16.602,60.059,-38.086,0
1578178699.285,-11.719,4.395,15.137,41.992,38.086,0
1578178699.289,-16.113,0.977,33.203,49.316,45.898,0
1578178699.293,11.719,4.395,36.133,52.734,-7.812,0
1578178699.297,17.578,1.953,7.324,52.734,-45.898,0
1578178699.299,-7.324,5.859,20.020,65.430,-28.809,0
1578178699.303,-7.812,14.160,35.156,57.129,-0.488,0
1578178699.307,4.883,4.883,23.926,44.922,-26.367,0
1578178699.311,32.715,-4.395,8.301,45.410,-21.973,0
1578178699.315,33.203,3.906,14.160,59.570,2.930,0
1578178699.319,-24.902,5.371,17.578,61.523,-24.414,0
1578178699.323,-16.113,9.766,22.949,52.734,6.836,0
1578178699.326,38.086,12.207,5.859,49.316,10.742,0
1578178699.330,24.902,16.113,0.000,41.504,-10.742,0
1578178699.334,0.000,22.949,31.738,44.434,85.938,0
1578178699.338,-10.742,24.414,31.250,53.223,102.539,0
1578178699.342,6.836,25.879,16.602,48.340,10.254,0
1578178699.344,28.809,17.578,6.836,53.223,0.977,0
1578178699.348,-2.930,12.695,13.672,59.570,-26.367,0
1578178699.352,-22.949,12.207,17.578,56.641,-41.992,0
1578178699.356,0.000,20.996,17.090,48.828,23.926,0
1578178699.360,8.789,27.832,15.137,51.270,44.434,0
1578178699.364,-9.277,13.672,12.695,45.898,18.555,0
1578178699.368,-26.855,16.113,33.691,39.551,57.617,0
1578178699.371,4.395,34.180,18.066,39.551,52.734,0
1578178699.375,36.133,37.598,16.113,42.480,0.977,0
1578178699.379,18.555,38.086,47.363,54.688,-10.254,0
1578178699.383,-8.301,28.320,40.527,61.035,29.297,0
1578178699.387,-2.930,35.156,34.668,64.941,46.875,0
1578178699.389,14.648,44.434,33.691,57.129,31.738,0
1578178699.393,15.137,30.762,24.414,53.223,19.531,0
1578178699.397,-0.488,25.879,28.320,50.293,42.480,0
1578178699.401,-2.441,30.762,39.062,38.574,31.250,0
1578178699.405,14.160,37.109,39.551,39.551,14.160,0
1578178699.409,33.691,31.738,21.484,48.828,33.691,1
1578178699.413,21.484,29.297,14.648,50.293,63.965,0
1578178699.416,1.953,36.621,18.066,53.711,56.152,0
1578178699.420,12.207,36.133,28.809,61.523,22.949,0
1578178699.424,35.645,33.203,11.230,47.363,13.184,0
1578178699.428,22.949,33.203,13.184,42.480,5.859,0
1578178699.432,-19.531,33.203,29.297,57.617,-4.395,0
1578178699.434,-8.789,35.645,24.414,54.199,28.320,0
1578178699.438,39.551,39.062,8.301,54.688,49.805,0
1578178699.442,31.250,42.969,5.371,65.918,46.875,0
1578178699.446,-5.859,47.852,22.949,73.242,114.746,0
1578178699.450,-3.418,48.340,11.719,54.199,114.746,0
1578178699.454,31.738,33.203,-19.531,40.039,7.812,0
1578178699.458,28.809,6.836,-38.574,36.133,-7.324,0
1578178699.461,1.953,10.254,-4.395,43.945,57.617,0
1578178699.465,-13.184,20.508,23.438,61.035,68.359,0
1578178699.469,4.883,12.207,-11.230,57.129,8.789,0
1578178699.473,21.484,9.277,-15.625,52.734,52.246,0
1578178699.477,19.531,13.184,-6.836,48.828,68.848,0
1578178699.494,14.648,22.949,-10.254,49.805,-30.762,0
1578178699.498,24.902,21.973,-23.438,47.363,12.695,0
1578178699.502,41.504,10.742,-39.551,43.457,16.602,0
1578178699.506,13.184,14.160,-18.066,58.594,7.812,0
1578178699.510,-19.043,17.090,-7.324,56.152,24.414,0
1578178699.514,-18.066,5.859,-34.668,40.527,78.125,0
1578178699.518,0.488,7.812,-43.945,43.457,131.836,0
1578178699.521,16.113,21.973,-12.207,50.293,43.945,0
1578178699.525,-20.508,20.508,3.906,40.039,19.531,0
1578178699.529,-12.207,24.414,-3.418,36.133,64.941,0
1578178699.533,34.180,20.508,-19.043,46.875,49.316,0
1578178699.537,34.180,8.789,-25.391,43.457,19.531,0
1578178699.539,7.324,21.973,-22.949,51.758,-20.996,0
1578178699.543,-16.113,17.090,-10.742,62.988,16.113,0
1578178699.547,8.789,8.789,-13.672,53.223,53.711,0
1578178699.551,29.297,21.484,-33.691,45.898,-28.320,0
1578178699.555,5.859,25.391,-28.809,50.781,-25.391,0
1578178699.559,-6.836,20.020,-21.484,56.641,48.340,0
1578178699.563,-2.441,11.230,-13.184,51.270,43.945,0
1578178699.566,14.160,6.348,-13.184,50.293,-25.391,0
1578178699.570,16.113,5.859,-16.602,51.758,-0.977,0
1578178699.574,3.418,2.441,-27.344,51.758,93.262,0
1578178699.578,15.137,5.371,-19.531,62.500,43.945,0
1578178699.582,31.738,8.789,-2.441,69.824,-22.461,0
1578178699.584,40.039,0.000,-14.160,63.477,7.812,0
1578178699.588,2.930,0.977,-4.395,61.523,53.711,0
1578178699.592,-20.508,3.906,7.812,56.641,90.820,0
1578178699.596,5.371,8.301,-7.324,55.176,37.598,0
1578178699.600,20.508,7.812,-22.461,59.082,16.602,0
1578178699.604,2.441,10.742,-14.648,64.453,44.922,0
1578178699.608,-0.488,11.719,0.977,68.359,15.625,0
1578178699.611,16.113,4.883,-9.277,59.570,-15.625,0
1578178699.615,50.293,5.371,-31.738,48.828,32.227,0
1578178699.619,44.434,7.812,-26.367,57.617,46.387,0
1578178699.623,3.418,19.531,12.695,69.824,31.250,0
1578178699.627,-8.301,33.691,11.230,52.734,63.965,0
1578178699.629,2.930,24.902,-8.301,44.434,89.355,0
1578178699.633,7.324,12.695,-6.348,47.363,133.301,0
1578178699.637,-14.160,6.836,5.859,50.781,58.105,0
1578178699.641,-10.254,-3.906,9.766,46.387,51.758,0
1578178699.645,27.832,-6.836,-1.465,36.621,74.707,0
1578178699.649,40.039,-1.465,-4.883,41.504,70.801,0
1578178699.653,-13.672,4.883,4.883,37.598,98.145,0
1578178699.656,-42.480,0.488,-0.488,31.738,25.391,0
1578178699.660,4.395,-0.488,-30.273,34.180,29.297,0
1578178699.664,30.273,13.672,-18.555,42.480,80.078,0
1578178699.668,-1.953,17.578,9.277,45.898,58.594,0
1578178699.672,-35.645,7.812,0.000,41.992,47.852,0
1578178699.674,-12.207,11.230,1.953,49.805,44.922,0
1578178699.678,23.926,17.090,12.207,55.664,81.055,0
1578178699.682,6.348,11.230,4.883,38.086,78.125,0
1578178699.686,-19.531,16.113,1.953,34.180,27.344,0
1578178699.690,-0.488,21.973,2.441,53.711,43.945,0
1578178699.694,27.344,16.113,-2.930,68.359,50.293,0
1578178699.698,9.277,19.043,-4.883,47.852,-8.789,0
1578178699.701,-12.695,25.879,-3.418,31.250,2.441,0
1578178699.705,-8.301,25.879,4.883,38.086,96.680,0
1578178699.709,8.789,27.344,21.973,49.805,47.852,0
1578178699.713,22.949,39.551,21.484,55.664,21.484,0
1578178699.717,17.090,41.504,20.020,51.758,57.129,0
1578178699.719,15.625,41.504,19.531,48.340,49.316,0
1578178699.723,24.414,47.363,10.742,49.805,26.855,0
1578178699.727,33.203,40.527,-1.465,50.781,-12.207,0
1578178699.731,16.113,29.785,12.207,47.363,-7.324,0
1578178699.735,-3.418,30.762,31.250,58.105,44.922,0
1578178699.739,10.254,40.039,11.719,62.988,-5.859,0
1578178699.743,15.137,36.133,8.789,45.898,5.371,0
1578178699.746,5.859,17.090,-7.812,46.875,74.219,0
1578178699.750,-19.531,15.137,5.371,38.086,37.109,0
1578178699.754,-16.113,14.160,35.156,35.645,61.035,0
1578178699.758,7.812,0.977,0.488,37.109,39.551,0
1578178699.762,-6.836,0.977,-4.395,40.039,34.180,0
1578178699.764,-36.621,5.859,14.648,43.457,-15.625,0
1578178699.768,-30.273,13.672,23.926,42.969,2.441,0
1578178699.772,15.137,17.090,-0.488,52.246,47.363,0
1578178699.776,19.531,14.160,-17.090,43.945,15.137,0
1578178699.780,-1.465,15.625,6.348,46.387,37.598,0
1578178699.784,2.441,19.531,4.395,51.270,71.289,0
1578178699.788,20.996,23.438,-23.438,50.781,46.387,0
1578178699.791,29.297,18.555,-17.090,39.551,59.082,0
1578178699.795,2.930,20.508,20.508,43.457,85.449,0
1578178699.799,-17.578,21.484,22.461,45.410,40.527,0
1578178699.803,11.230,19.531,10.742,49.316,73.730,0
1578178699.807,35.645,25.391,5.371,57.617,64.941,0
1578178699.809,2.930,28.809,8.301,60.059,6.836,0
1578178699.813,-29.785,28.809,9.766,61.035,34.668,0
1578178699.817,-6.348,23.926,0.977,47.363,32.715,0
1578178699.821,26.855,25.391,-4.395,56.641,15.137,0
1578178699.825,27.344,39.062,3.418,63.477,4.883,0
1578178699.829,5.371,46.875,4.395,66.895,68.848,0
1578178699.833,10.742,42.480,-1.953,67.383,74.219,0
1578178699.836,34.180,35.156,1.465,60.059,47.852,0
1578178699.840,36.621,47.363,5.859,60.059,31.738,0
1578178699.844,18.066,65.918,-3.418,57.129,21.484,0
1578178699.848,-2.441,54.688,-10.742,63.477,50.781,0
1578178699.852,-0.977,37.109,6.836,67.871,63.477,0
1578178699.869,14.160,37.598,7.324,75.684,13.184,0
1578178699.873,9.277,44.922,-2.930,88.379,9.766,0
1578178699.877,-14.648,42.480,-0.977,62.012,28.320,0
1578178699.881,6.836,33.203,9.766,41.504,18.555,0
1578178699.885,46.387,28.809,5.859,48.828,20.996,0
1578178699.889,29.297,31.738,-0.977,49.805,79.102,0
1578178699.893,-10.254,33.203,14.160,48.340,87.402,0
1578178699.896,-18.555,27.832,33.691,46.875,30.762,0
1578178699.900,9.277,21.973,12.695,46.387,44.922,0
1578178699.904,17.578,23.438,-6.348,42.480,53.711,0
1578178699.908,-9.766,27.344,11.230,43.945,59.570,0
1578178699.912,-21.484,31.738,26.367,52.246,30.273,0
1578178699.914,6.348,30.273,12.207,59.082,-28.809,0
1578178699.918,30.273,25.391,6.348,51.758,5.859,0
1578178699.922,14.648,25.879,22.461,48.340,100.098,0
1578178699.926,-3.418,24.902,26.855,52.734,54.199,0
1578178699.930,10.742,16.113,6.348,49.805,-2.441,0
1578178699.934,33.691,19.043,-2.930,55.176,14.160,0
1578178699.938,20.508,27.344,12.207,62.988,14.160,0
1578178699.941,-24.414,24.414,29.785,55.664,-18.555,0
1578178699.945,-6.348,20.508,30.273,47.363,-3.906,0
1578178699.949,13.672,15.625,-6.348,44.434,51.270,0
1578178699.953,-18.066,13.672,3.906,40.039,63.965,0
1578178699.957,-17.578,14.648,34.668,38.086,25.391,0
1578178699.959,-5.371,19.531,8.789,40.527,19.043,0
1578178699.963,32.227,22.949,-9.277,44.922,29.297,0
1578178699.967,30.273,24.414,2.441,61.035,23.926,0
1578178699.971,-7.324,23.438,-2.441,55.176,-32.715,0
1578178699.975,-1.953,23.438,-19.531,44.922,-75.195,0
1578178699.979,4.395,20.020,-22.949,49.805,-21.484,0
1578178699.983,26.367,20.020,-18.066,46.875,-43.457,0
1578178699.986,4.395,28.320,4.395,47.363,-38.086,0
1578178699.990,-30.273,29.297,-9.277,47.363,74.707,0
1578178699.994,-4.883,34.668,-21.973,49.805,49.316,0
1578178699.998,27.832,34.180,2.930,47.363,-45.410,0
1578178700.002,14.160,18.555,-13.672,36.133,-32.715,0
1578178700.004,-26.855,20.996,-12.695,45.898,20.996,0
1578178700.008,-13.184,23.438,0.488,53.711,62.500,0
1578178700.012,31.250,16.602,1.953,45.410,46.875,0
1578178700.016,36.133,9.766,8.789,32.227,49.805,0
1578178700.020,-4.883,12.695,5.371,34.180,41.504,0
1578178700.024,-23.438,21.484,0.000,36.133,-37.109,0
1578178700.028,11.719,30.273,-0.488,36.621,-41.016,0
1578178700.031,28.320,39.062,1.465,53.711,-21.973,0
1578178700.035,-0.977,36.621,-17.090,52.734,6.348,0
1578178700.039,-17.578,27.832,-6.348,38.574,19.043,0
1578178700.043,20.020,35.645,9.766,52.246,3.418,0
1578178700.047,56.641,34.180,-21.484,50.781,43.945,0
1578178700.049,8.789,26.367,-15.625,45.410,34.180,0
1578178700.053,-17.578,36.621,4.883,58.105,-32.227,0
1578178700.057,-3.418,29.785,-1.953,46.387,-59.570,0
1578178700.061,7.324,14.160,-21.973,43.457,-34.668,0
1578178700.065,14.160,14.648,-23.926,45.410,-41.504,0
1578178700.069,-10.742,16.602,-5.859,45.410,-32.227,0
1578178700.073,-8.301,11.719,7.324,54.688,-2.441,0
1578178700.076,27.832,17.090,-10.254,55.664,34.668,0
1578178700.080,22.461,21.973,-18.066,58.105,110.352,0
1578178700.084,-19.043,25.391,18.555,68.848,95.215,0
1578178700.088,-11.719,28.320,16.113,63.477,12.695,0
1578178700.092,24.414,23.926,-11.719,54.199,-26.367,0
1578178700.094,28.320,25.391,-7.324,38.574,47.363,0
1578178700.098,-11.719,19.043,7.812,41.992,85.449,0
1578178700.102,-13.672,14.648,2.930,55.176,78.125,0
1578178700.106,34.668,28.809,7.812,66.895,77.148,0
1578178700.110,15.137,26.367,5.371,58.105,34.180,0
1578178700.114,-17.090,13.184,-1.953,51.758,22.949,0
1578178700.118,-11.230,23.926,16.113,56.641,55.664,0
1578178700.121,-1.953,39.551,1.465,41.504,136.230,0
1578178700.125,21.973,34.668,-2.441,46.387,99.121,0
1578178700.129,17.090,23.926,17.578,38.574,-33.691,0
1578178700.133,-9.766,24.414,13.672,34.668,16.113,0
1578178700.137,-2.441,30.762,9.766,49.805,62.988,0
1578178700.139,4.395,32.715,6.348,52.734,21.973,0
1578178700.143,9.766,32.227,17.090,53.711,21.484,0
1578178700.147,-10.254,27.832,19.043,63.965,58.105,0
1578178700.151,-13.672,16.602,10.742,60.059,73.730,0
1578178700.155,34.180,10.254,5.859,43.945,37.109,0
1578178700.159,29.297,8.789,-1.465,27.344,67.383,0
1578178700.163,-13.672,14.160,-0.977,35.645,63.965,0
1578178700.166,-15.137,22.461,13.672,48.828,40.039,0
1578178700.170,-1.465,19.043,42.480,52.246,47.852,0
1578178700.174,7.812,10.742,25.879,58.105,4.883,0
1578178700.178,-0.977,8.789,20.996,51.270,41.016,0
1578178700.182,-16.602,9.277,34.668,47.852,48.828,0
1578178700.184,1.953,5.371,20.508,44.922,14.160,0
1578178700.188,21.484,1.953,2.441,38.086,24.414,0
1578178700.192,26.367,3.418,1.465,42.969,72.266,0
1578178700.196,-5.371,14.160,13.672,53.223,66.895,0
1578178700.200,-29.785,29.785,14.160,56.641,24.414,0
1578178700.204,-1.953,19.531,-0.977,56.641,60.547,0
1578178700.208,25.879,5.371,-24.902,54.199,37.598,0
1578178700.211,9.766,17.578,1.953,62.500,11.230,0
1578178700.215,-10.742,26.855,32.715,45.898,5.859,0
1578178700.219,-0.977,23.926,8.789,31.250,5.859,0
1578178700.223,10.742,19.531,1.465,52.246,19.531,0
1578178700.227,3.906,21.484,16.602,51.758,26.367,0
1578178700.229,-10.254,26.367,31.250,58.105,16.113,0
1578178700.233,8.789,29.785,31.250,60.547,23.926,0
1578178700.237,32.227,41.016,30.762,57.617,2.441,0
1578178700.241,20.996,45.898,47.363,54.688,-42.969,0
1578178700.245,-25.391,44.922,64.453,55.176,25.879,0
1578178700.249,0.488,41.016,51.758,58.105,59.082,0
1578178700.253,52.734,35.645,42.480,45.898,35.156,0
1578178700.256,29.785,40.527,65.430,45.898,13.184,2
1578178700.260,-16.113,42.969,68.359,50.293,-19.531,0
1578178700.264,-17.090,46.875,57.617,46.387,-56.641,0
1578178700.268,8.789,42.969,54.688,40.527,-43.945,0
1578178700.272,18.555,45.410,51.270,41.992,-62.012,0
1578178700.289,0.000,57.617,59.570,51.270,-40.039,0
1578178700.293,-5.859,52.734,64.941,61.523,-48.340,0
1578178700.297,30.273,52.246,56.641,65.430,-72.266,0
1578178700.301,47.852,58.594,61.035,69.824,0.000,0
1578178700.305,24.902,61.523,51.270,71.777,-13.672,0
1578178700.309,-1.953,65.918,44.434,53.711,0.000,0
1578178700.313,3.418,61.035,48.828,45.410,-17.578,0
1578178700.316,26.367,68.848,45.410,55.176,-98.633,0
1578178700.320,10.742,61.035,37.109,56.641,-60.547,0
1578178700.324,-18.555,41.504,29.297,55.176,-2.930,0
1578178700.328,11.230,54.199,47.852,67.383,-1.953,0
1578178700.332,47.363,52.246,44.922,65.918,-45.898,0
1578178700.334,32.227,43.945,26.367,51.270,-57.129,0
1578178700.338,0.000,49.805,34.668,51.758,-45.410,0
1578178700.342,6.836,51.758,41.992,46.387,1.465,0
1578178700.346,29.785,45.898,31.738,52.734,18.555,0
1578178700.350,26.855,36.621,26.855,59.570,86.426,0
1578178700.354,2.441,25.879,16.602,48.828,38.086,0
1578178700.358,-14.160,22.949,40.527,56.152,14.160,0
1578178700.361,14.648,32.227,49.805,65.918,45.410,0
1578178700.365,31.250,39.062,10.254,66.895,29.297,0
1578178700.369,18.555,42.480,12.207,68.359,64.453,0
1578178700.373,4.395,42.480,51.758,55.664,37.109,0
1578178700.377,9.766,40.039,49.805,62.012,25.879,0
1578178700.379,41.016,33.203,26.367,76.172,20.996,0
1578178700.383,54.688,25.879,20.020,56.152,-27.832,0
1578178700.387,16.113,24.414,35.645,54.688,-24.902,0
1578178700.391,3.418,22.949,40.527,68.848,50.293,0
1578178700.395,43.457,28.320,15.625,70.312,3.418,0
1578178700.399,38.086,34.668,1.953,71.289,-45.410,0
1578178700.403,9.766,33.203,20.020,80.566,-25.879,0
1578178700.406,29.785,35.645,35.645,75.195,-22.461,0
1578178700.410,48.828,22.949,10.254,48.340,48.340,0
1578178700.414,28.809,18.555,8.789,49.316,41.016,0
1578178700.418,7.324,28.320,39.551,62.012,-23.438,0
1578178700.422,-7.324,17.578,34.180,58.105,42.969,0
1578178700.424,10.254,20.020,23.438,61.035,21.484,0
1578178700.428,42.480,37.109,30.762,70.312,-33.691,0
1578178700.432,43.457,41.016,36.133,70.312,33.203,0
1578178700.436,1.465,41.016,33.203,62.500,10.742,0
1578178700.440,4.395,35.156,41.992,59.082,40.039,0
1578178700.444,43.945,28.809,25.879,61.035,66.895,0
1578178700.448,25.391,22.461,21.484,56.641,29.297,0
1578178700.451,3.418,17.090,26.367,51.758,65.430,0
1578178700.455,17.578,14.160,13.184,56.152,62.500,0
1578178700.459,22.461,16.113,30.273,63.477,8.301,0
1578178700.463,16.113,14.160,38.574,64.453,21.973,0
1578178700.467,-16.602,16.113,34.180,60.059,40.527,0
1578178700.469,-27.832,26.367,46.875,43.457,46.387,0
1578178700.473,14.648,27.832,49.805,50.293,41.992,0
1578178700.477,26.855,12.695,23.926,52.246,1.465,0
1578178700.481,5.371,3.418,21.484,36.621,-18.066,0
1578178700.485,-24.414,5.371,43.457,52.734,44.922,0
1578178700.489,-3.906,0.000,26.367,54.199,33.691,0
1578178700.493,26.367,-1.953,12.207,43.457,5.371,0
1578178700.496,-10.742,-3.906,13.184,41.504,58.594,0
1578178700.500,-20.020,-2.930,19.531,38.574,40.527,0
1578178700.504,5.859,0.977,22.949,52.246,10.254,0
1578178700.508,28.320,0.488,2.930,62.988,27.832,0
1578178700.512,19.043,1.465,-13.672,56.641,58.105,0
1578178700.529,-17.578,10.254,7.812,62.500,20.508,0
1578178700.533,-24.902,17.090,13.184,58.594,-6.836,0
1578178700.537,-5.371,11.719,-20.996,39.062,4.883,0
1578178700.541,38.086,24.902,-22.461,53.711,5.371,0
1578178700.545,41.016,26.855,-3.906,51.758,26.367,0
1578178700.549,-7.324,21.973,-6.836,49.316,30.273,0
1578178700.553,-7.324,25.391,-20.508,59.082,37.598,0
1578178700.556,16.113,2.441,-27.344,51.270,58.594,0
1578178700.560,-9.277,0.977,-6.348,44.434,-3.418,0
1578178700.564,-20.508,12.695,1.953,47.852,-19.531,0
1578178700.568,11.719,18.555,-1.465,46.875,34.668,0
1578178700.572,20.508,28.809,0.977,47.363,33.203,0
1578178700.559,13.184,29.297,7.324,45.898,36.621,0
1578178700.563,4.883,16.113,12.695,39.062,44.922,0
1578178700.567,11.719,14.648,13.184,44.922,93.750,0
1578178700.571,26.855,19.531,15.137,53.223,89.355,0
1578178700.575,16.113,18.555,23.438,56.641,12.695,0
1578178700.579,4.883,8.301,14.160,54.199,41.504,0
1578178700.583,-7.812,4.883,16.602,61.523,81.055,0
1578178700.586,7.324,9.766,23.438,57.129,34.668,0
1578178700.590,28.320,16.113,23.438,35.645,40.527,0
1578178700.594,-0.488,21.973,16.113,47.363,74.707,0
1578178700.598,-3.418,17.578,-2.441,57.617,78.613,0
1578178700.602,15.625,19.043,9.277,49.805,70.312,0
1578178700.604,28.320,22.461,15.137,52.734,47.852,0
1578178700.608,27.344,9.277,0.488,49.805,20.996,0
1578178700.612,-11.719,4.395,6.348,43.945,21.973,0
1578178700.616,-17.090,15.137,14.160,44.434,-20.020,0
1578178700.620,13.672,16.602,7.324,49.805,21.973,0
1578178700.624,18.066,12.207,-22.949,56.641,51.758,0
1578178700.628,-3.418,9.277,-30.273,61.523,21.973,0
1578178700.631,-10.254,16.602,8.301,54.199,48.828,0
1578178700.635,1.465,19.043,-2.441,35.156,36.621,0
1578178700.639,3.418,18.555,-22.461,48.340,62.500,0
1578178700.643,5.859,24.902,-7.812,68.848,56.152,0
1578178700.647,-2.930,23.926,-3.906,65.430,54.199,0
1578178700.664,16.602,20.020,-17.090,60.059,83.984,0
1578178700.668,51.758,25.391,-21.973,65.918,107.422,0
1578178700.672,18.066,29.297,-22.461,62.012,111.328,0
1578178700.676,-25.391,25.391,-21.973,58.105,30.762,0
1578178700.680,-6.348,29.297,-25.391,57.617,-5.859,0
1578178700.684,20.996,30.762,-40.039,53.223,14.648,0
1578178700.688,10.742,24.902,-35.156,58.105,-15.625,0
1578178700.691,-11.230,26.367,-16.113,57.129,-16.113,0
1578178700.695,3.418,36.133,-12.695,51.270,44.434,0
1578178700.699,38.574,35.156,-36.621,53.711,35.156,0
1578178700.703,20.508,23.926,-28.809,46.875,0.488,0
1578178700.707,-11.719,27.832,-4.395,42.969,10.742,0
1578178700.709,-4.883,36.133,-12.207,53.223,56.641,0
1578178700.713,10.254,32.227,-30.273,53.223,42.480,0
1578178700.717,17.090,42.480,-23.926,59.082,41.504,0
1578178700.721,-12.207,46.875,-8.301,63.965,92.773,0
1578178700.725,-26.855,32.715,-16.602,52.734,114.746,0
1578178700.729,0.488,30.762,-36.621,48.828,113.770,0
1578178700.733,8.301,22.949,-36.133,40.527,95.215,0
1578178700.736,-3.418,20.508,-21.484,44.434,34.668,0
1578178700.740,-7.324,25.879,-19.531,56.152,64.453,0
1578178700.744,14.648,22.461,-28.809,52.734,94.238,0
1578178700.748,38.086,29.785,-12.695,56.152,47.363,0
1578178700.752,20.508,33.691,-10.254,61.523,51.270,0
1578178700.754,-4.883,31.250,-10.742,65.430,47.363,0
1578178700.758,-9.766,33.203,-3.418,67.871,74.707,0
1578178700.762,19.531,34.668,-12.695,57.129,59.570,0
1578178700.766,23.438,37.109,-25.879,53.223,-13.672,0
1578178700.770,-4.395,38.086,-18.066,49.805,28.809,0
1578178700.774,-1.953,31.738,-13.184,46.387,92.285,0
1578178700.778,19.043,31.738,-15.625,54.199,15.625,0
1578178700.781,8.789,35.645,-13.672,55.664,-15.625,0
1578178700.785,-22.461,29.297,-29.785,48.340,42.480,0
1578178700.789,-33.203,25.879,-12.207,38.574,33.691,0
1578178700.793,6.836,28.320,14.648,48.340,37.109,0
1578178700.797,27.832,22.949,-10.254,49.805,19.531,0
1578178700.799,1.465,20.508,-11.230,49.805,27.832,0
1578178700.803,-7.812,26.367,4.395,50.293,30.273,0
1578178700.807,2.930,18.066,-4.395,52.246,31.250,0
1578178700.811,18.555,14.648,-23.438,49.316,89.355,0
1578178700.815,1.953,19.531,-29.297,32.227,71.289,0
1578178700.819,-19.531,9.277,-11.230,45.898,58.594,0
1578178700.823,-5.859,2.441,12.695,55.176,105.469,0
1578178700.826,3.418,-1.953,-14.648,42.969,54.199,0
1578178700.830,18.555,-1.465,-21.484,33.691,101.074,0
1578178700.834,3.418,4.395,19.043,32.715,129.883,0
1578178700.838,-17.090,6.348,5.371,40.039,-33.691,0
1578178700.842,9.277,7.324,-7.812,50.293,-61.523,0
1578178700.844,33.203,10.254,2.441,53.711,-8.301,0
1578178700.848,9.766,18.066,8.301,52.246,-15.625,0
1578178700.852,-5.859,19.043,4.883,57.129,-13.184,0
1578178700.856,12.207,24.902,2.441,54.199,18.555,0
1578178700.860,32.715,31.250,-4.395,49.316,-13.672,0
1578178700.864,35.156,22.949,-6.348,57.617,-40.527,0
1578178700.868,-18.555,22.949,17.090,67.383,-19.531,0
1578178700.871,-41.016,34.180,2.441,59.570,10.742,0
1578178700.875,14.160,45.898,-0.977,50.781,13.184,0
1578178700.879,22.949,44.434,27.344,48.828,19.043,0
1578178700.883,-20.996,38.574,18.066,50.293,74.707,0
1578178700.887,0.000,39.551,12.695,62.988,54.688,0
1578178700.889,38.574,34.180,14.648,57.617,46.387,0
1578178700.893,25.391,30.762,15.137,53.223,55.176,0
1578178700.897,6.348,41.504,17.090,63.965,53.223,0
1578178700.901,11.719,51.758,13.184,67.383,20.508,0
1578178700.905,23.438,51.270,17.090,72.266,-3.418,0
1578178700.909,17.578,57.129,19.043,64.941,33.203,0
1578178700.913,4.883,61.035,17.090,63.477,40.039,0
1578178700.916,4.395,57.129,26.855,63.965,67.871,0
1578178700.920,37.109,57.617,49.805,60.547,86.426,0
1578178700.924,58.594,56.152,35.645,71.289,46.387,0
1578178700.928,34.668,54.688,20.508,72.754,35.645,0
1578178700.932,12.207,46.875,37.109,60.547,9.766,0
1578178700.934,16.113,46.387,33.691,62.988,-5.371,0
1578178700.938,20.020,41.016,15.625,72.754,40.527,0
1578178700.942,13.672,36.621,14.648,73.730,58.594,0
1578178700.946,2.441,38.574,26.367,68.359,39.062,0
1578178700.950,11.719,31.738,20.508,63.477,-3.906,0
1578178700.954,34.180,26.855,0.488,53.223,-3.906,0
1578178700.958,32.715,31.738,-14.648,44.434,-33.691,0
1578178700.961,9.766,37.598,14.160,35.156,22.461,0
1578178700.965,-10.742,37.109,44.434,45.898,80.566,0
1578178700.969,-15.137,36.133,19.043,51.758,30.762,0
1578178700.973,8.301,34.180,3.906,50.781,23.438,0
1578178700.977,5.859,28.809,27.344,61.523,49.805,0
1578178700.979,-4.395,28.320,40.527,63.477,54.199,0
1578178700.983,36.133,21.973,27.832,64.941,73.242,0
1578178700.987,42.480,11.230,20.508,61.035,75.195,0
1578178700.991,24.902,11.719,26.367,43.457,16.602,0
1578178700.995,12.207,19.043,39.551,44.434,21.973,0
1578178700.999,-20.020,12.695,12.207,55.664,57.617,0
1578178701.003,0.488,13.184,-2.930,49.805,42.969,0
1578178701.006,7.324,18.555,30.273,44.434,47.852,0
1578178701.010,-8.789,15.137,32.227,65.918,41.016,0
1578178701.014,-8.301,11.719,11.230,52.246,15.625,0
1578178701.018,23.438,8.301,6.348,41.504,-25.391,0
1578178701.022,39.062,10.742,22.461,64.453,-20.020,0
1578178701.039,0.000,13.672,31.738,56.641,29.785,0
1578178701.043,-4.395,21.484,37.598,54.688,102.051,0
1578178701.047,11.719,20.508,28.320,53.223,86.914,0
1578178701.051,11.230,15.137,15.137,52.246,11.230,0
1578178701.055,6.836,15.137,14.160,64.453,17.578,0
1578178701.059,-10.742,9.766,-0.488,62.012,29.785,0
1578178701.063,12.207,3.418,7.812,44.922,44.434,0
1578178701.066,32.227,0.977,23.926,44.434,59.082,0
1578178701.070,16.113,4.395,15.137,56.641,52.246,0
1578178701.074,-2.930,3.906,16.113,58.105,77.637,0
1578178701.078,8.301,6.348,13.672,65.430,9.277,0
1578178701.082,29.297,16.602,11.230,68.359,-47.852,0
1578178701.084,18.555,8.789,2.441,62.500,3.418,0
1578178701.088,-4.395,3.418,1.465,69.824,-4.395,0
1578178701.092,4.395,5.859,14.648,72.266,-75.684,0
1578178701.096,22.949,-3.906,13.184,60.547,-58.105,0
1578178701.100,27.832,-5.371,-11.719,40.527,-54.688,0
1578178701.104,-1.465,-1.465,-7.812,64.941,-17.090,0
1578178701.108,-17.578,-3.906,15.625,76.660,20.020,0
1578178701.111,19.043,7.812,11.230,43.457,-10.254,0
1578178701.115,34.180,11.719,2.930,35.645,58.105,0
1578178701.119,2.930,3.418,3.418,36.133,88.867,1
1578178701.123,-19.531,3.418,18.555,43.457,16.602,0
1578178701.127,-3.418,0.488,14.160,51.270,34.668,0
1578178701.129,15.137,6.348,3.418,53.711,113.281,0
1578178701.133,23.926,15.137,6.348,54.199,66.406,0
1578178701.137,8.789,19.043,21.973,59.570,22.461,0
1578178701.141,17.578,21.973,21.973,64.941,33.203,0
1578178701.145,37.109,12.207,-11.230,45.898,-1.953,0
1578178701.149,11.230,2.930,-21.484,41.016,15.625,0
1578178701.153,6.348,11.230,5.371,56.641,63.477,0
1578178701.156,-6.836,6.836,4.395,59.570,30.273,0
1578178701.160,8.301,-0.488,-39.062,48.340,4.883,0
1578178701.164,26.367,6.836,-31.738,45.898,17.578,0
1578178701.168,-16.113,7.324,4.395,58.105,25.879,0
1578178701.172,-22.949,6.836,6.348,60.547,64.941,0
1578178701.174,14.648,5.371,2.441,58.594,55.664,0
1578178701.178,30.273,3.906,5.371,60.547,4.883,0
1578178701.182,6.836,-0.977,11.230,53.711,-6.348,0
1578178701.186,-7.812,0.977,3.906,58.105,8.301,0
1578178701.190,11.719,8.301,-7.812,64.453,60.547,0
1578178701.194,24.414,13.672,-13.184,54.199,60.059,0
1578178701.198,19.043,21.973,9.277,62.988,20.020,0
1578178701.201,11.230,12.695,16.602,62.012,49.805,0
1578178701.205,-6.348,-6.348,5.859,56.152,59.570,0
1578178701.209,19.531,-0.977,27.344,62.988,39.551,0
1578178701.213,23.438,10.742,21.973,57.129,31.738,0
1578178701.217,-13.672,23.926,17.578,70.312,12.207,0
1578178701.219,-17.578,18.066,14.160,74.707,-2.441,0
1578178701.223,12.695,5.859,0.000,59.082,20.020,0
1578178701.227,26.855,7.812,-1.953,58.594,66.406,0
1578178701.231,9.766,9.277,2.441,66.895,50.781,0
1578178701.235,-8.789,15.137,1.465,49.316,15.137,0
1578178701.239,-0.488,13.672,-7.324,41.016,10.742,0
1578178701.243,26.367,15.137,-14.160,53.711,-27.832,0
1578178701.246,0.977,18.066,-24.902,43.457,28.809,0
1578178701.250,-22.949,17.578,-8.301,47.852,13.184,0
1578178701.254,9.277,22.949,14.160,55.664,-90.332,0
1578178701.258,25.391,26.367,-7.324,47.363,-55.176,0
1578178701.262,5.859,25.879,-4.395,46.875,-28.320,0
1578178701.264,-20.996,23.438,16.113,46.387,-36.133,0
1578178701.268,1.953,19.531,18.066,48.340,-57.617,0
1578178701.272,24.414,13.184,0.000,40.527,-69.336,0
1578178701.276,-1.953,17.578,0.977,40.039,-26.855,0
1578178701.280,-5.371,21.973,17.090,49.805,-8.789,0
1578178701.284,2.930,23.438,20.508,45.898,27.344,0
1578178701.288,14.648,26.855,1.953,43.945,34.180,0
1578178701.291,16.602,25.879,-5.371,53.223,27.344,0
1578178701.295,11.230,33.203,33.203,60.059,5.371,0
1578178701.299,7.812,37.109,37.109,60.547,-22.949,0
1578178701.303,15.137,39.062,20.020,59.082,-19.531,0
1578178701.307,36.621,37.109,17.090,49.805,-16.602,0
1578178701.309,33.203,40.039,20.996,54.199,-1.465,0
1578178701.313,-10.742,44.434,20.508,61.035,-28.320,0
1578178701.317,2.930,39.062,6.836,59.570,-46.387,0
1578178701.321,34.668,33.203,-6.348,50.781,-34.668,0
1578178701.325,26.855,42.969,-11.230,46.387,-21.973,0
1578178701.329,0.977,46.387,-9.277,62.988,10.742,0
1578178701.333,-7.812,38.086,-15.625,57.129,11.230,0
1578178701.336,5.859,35.645,-10.254,35.645,55.176,0
1578178701.340,19.531,44.434,11.719,38.086,59.570,0
1578178701.344,-2.441,53.223,15.137,54.688,51.270,0
1578178701.348,-16.113,49.805,12.695,62.988,82.520,0
1578178701.352,14.160,42.480,7.324,56.641,82.031,0
1578178701.354,20.020,38.086,2.441,41.504,57.129,0
1578178701.358,-4.395,32.715,-5.859,26.367,18.555,0
1578178701.362,-26.367,36.621,0.977,26.855,28.809,0
1578178701.366,-20.508,40.527,15.137,31.738,88.379,0
1578178701.370,7.812,32.227,3.418,35.156,81.543,0
1578178701.374,7.324,32.227,-10.254,44.434,39.062,0
1578178701.378,-20.508,44.434,4.883,45.898,16.113,0
1578178701.381,-13.184,35.645,30.273,43.457,8.789,0
1578178701.385,30.762,29.297,19.043,49.805,-41.016,0
1578178701.389,35.645,44.434,16.113,51.270,-44.922,0
1578178701.393,-5.371,41.992,32.227,53.711,24.902,0
1578178701.397,-30.273,38.086,33.691,63.965,20.020,0
1578178701.414,-8.301,38.574,22.949,51.270,-48.828,0
1578178701.418,23.438,30.762,17.090,41.504,-47.852,0
1578178701.422,15.137,38.574,20.020,48.340,-27.344,0
1578178701.426,-5.859,44.434,20.996,52.734,-31.250,0
1578178701.430,10.254,31.250,7.812,50.293,-13.672,0
1578178701.434,10.742,20.508,-12.207,42.969,6.836,0
1578178701.438,-8.301,16.602,-1.465,41.016,26.367,0
1578178701.441,-10.742,20.020,19.531,42.969,0.977,0
1578178701.445,6.836,29.297,18.066,61.523,-4.395,0
1578178701.449,28.320,39.062,-5.859,59.570,37.598,0
1578178701.453,22.949,42.480,7.324,52.734,29.785,0
1578178701.457,8.301,47.852,38.574,61.035,-34.668,0
1578178701.459,6.348,50.293,35.645,52.246,34.180,0
1578178701.463,25.391,34.668,13.672,37.598,73.242,0
1578178701.467,31.250,27.832,8.301,40.527,-21.973,0
1578178701.471,-8.789,26.855,25.879,44.434,-20.508,0
1578178701.475,-15.625,22.949,26.367,48.340,48.828,0
1578178701.479,28.320,25.879,7.324,59.082,58.594,0
1578178701.483,33.691,22.949,3.418,52.246,25.391,0
1578178701.486,-12.207,23.926,19.531,51.758,33.203,0
1578178701.490,-23.926,33.203,9.277,59.570,34.180,0
1578178701.494,9.766,39.551,-5.859,47.363,13.672,0
1578178701.498,25.391,41.504,18.555,44.922,-4.395,0
1578178701.502,9.766,35.156,26.367,52.734,84.473,0
1578178701.504,-9.766,33.691,14.648,53.711,25.879,0
1578178701.508,-2.930,40.039,21.973,41.992,-12.695,0
1578178701.512,28.809,30.762,22.461,38.574,22.461,0
1578178701.516,31.250,24.414,13.184,50.293,11.230,0
1578178701.520,-3.418,24.414,17.578,54.199,34.668,0
1578178701.524,-23.438,24.902,13.672,51.758,40.039,0
1578178701.528,-5.859,28.320,8.301,44.922,83.496,0
1578178701.531,22.949,31.738,12.207,47.363,80.566,0
1578178701.535,5.371,28.320,-9.277,52.246,65.430,0
1578178701.539,-7.324,26.367,2.441,60.059,107.422,0
1578178701.543,23.438,29.785,23.438,46.875,79.590,0
1578178701.547,43.945,34.180,-0.488,41.016,59.570,0
1578178701.549,-3.418,31.738,-1.953,48.340,42.480,0
1578178701.553,-27.344,23.438,15.137,53.223,58.594,0
1578178701.557,14.160,21.484,3.906,59.570,71.777,0
1578178701.561,23.438,22.461,-16.602,57.129,64.941,0
1578178701.565,15.625,29.785,-12.695,54.688,86.426,0
1578178701.569,-6.348,26.855,-4.883,58.105,82.520,0
1578178701.573,-13.672,25.879,-2.930,61.523,47.852,0
1578178701.576,25.391,25.391,-24.414,54.199,-3.906,0
1578178701.580,45.898,33.691,-23.926,63.477,2.441,0
1578178701.584,3.906,38.086,24.414,63.477,-1.953,0
1578178701.588,1.953,32.715,26.855,63.965,-12.207,0
1578178701.592,49.805,41.016,4.883,72.266,9.766,0
1578178701.594,28.809,40.527,5.371,57.617,50.781,0
1578178701.598,-6.348,37.598,13.672,53.711,52.246,0
1578178701.602,-7.812,33.691,5.859,60.059,2.930,0
1578178701.606,15.137,37.598,9.277,77.637,4.883,0
1578178701.610,26.367,38.086,4.883,73.242,-24.414,0
1578178701.614,11.230,37.598,3.418,50.293,22.461,0
1578178701.618,-2.930,43.457,22.461,60.547,98.633,0
1578178701.621,11.230,35.645,6.348,53.223,107.910,0
1578178701.625,28.809,20.996,7.812,45.410,91.797,0
1578178701.629,20.020,18.555,41.504,64.941,83.008,0
1578178701.633,8.301,27.344,35.645,60.547,86.426,0
1578178701.637,4.883,31.250,22.461,51.758,80.566,0
1578178701.639,23.926,32.227,28.809,55.176,33.203,0
1578178701.643,32.227,34.668,34.668,63.965,7.324,0
1578178701.647,-12.207,32.715,24.414,62.012,48.340,0
1578178701.651,-18.555,46.387,23.926,59.082,78.613,0
1578178701.655,18.066,46.387,16.113,58.105,45.410,0
1578178701.659,27.832,23.926,-3.418,60.059,23.438,0
1578178701.663,-3.906,17.090,-5.859,62.012,69.824,0
1578178701.666,-14.160,19.531,-1.465,41.992,76.172,0
1578178701.670,2.441,20.020,25.879,43.457,52.246,0
1578178701.674,15.137,18.066,24.902,55.664,29.785,0
1578178701.678,15.625,17.090,10.742,51.758,27.832,0
1578178701.682,-4.883,24.902,22.461,48.340,36.133,0
1578178701.684,-4.395,23.926,30.762,46.387,-9.766,0
1578178701.688,26.367,10.742,14.160,53.711,26.367,0
1578178701.692,13.672,14.160,-2.441,57.129,22.461,0
1578178701.696,-20.996,21.973,9.277,45.898,-0.488,0
1578178701.700,-33.691,19.531,16.602,42.480,-1.465,0
1578178701.704,7.812,21.484,10.742,51.758,76.660,0
1578178701.708,25.391,13.184,-11.230,43.457,100.098,0
1578178701.711,-6.348,5.859,6.836,30.273,69.336,0
1578178701.715,-9.766,12.695,44.434,36.133,57.617,0
1578178701.719,-13.672,13.672,26.367,47.363,36.133,0
1578178701.723,-1.465,15.137,13.672,47.363,34.668,0
1578178701.727,-5.859,25.879,21.973,31.738,-15.137,0
1578178701.729,-33.691,22.461,21.484,30.762,-77.637,0
1578178701.733,-9.766,16.602,8.789,41.992,-83.984,0
1578178701.737,22.461,21.973,6.348,47.852,-47.852,0
1578178701.741,7.812,20.020,12.207,52.246,-40.527,0
1578178701.745,-13.184,13.184,10.254,43.945,-37.598,0
1578178701.749,-1.953,17.090,-0.977,39.551,17.090,0
1578178701.753,11.230,18.555,-10.742,36.133,38.574,0
1578178701.756,11.230,10.254,20.020,43.945,3.418,0
1578178701.760,-8.301,7.812,35.645,47.363,44.434,0
1578178701.764,-15.137,4.883,4.883,40.527,-15.137,0
1578178701.768,3.418,1.465,0.000,40.527,-27.344,0
1578178701.772,24.902,3.906,15.137,50.293,-0.977,0
1578178701.789,-1.465,1.953,18.066,64.941,-44.434,0
1578178701.793,-13.184,4.395,11.230,62.012,-7.812,0
1578178701.797,26.367,11.230,2.441,59.082,5.859,0
1578178701.801,34.668,10.254,0.488,57.617,41.016,0
1578178701.805,-0.977,5.371,-6.836,47.852,38.574,0
1578178701.809,-19.043,3.906,-7.812,48.828,86.426,0
1578178701.813,18.555,7.812,4.395,41.016,162.598,0
1578178701.816,35.645,11.230,10.254,53.711,108.887,0
1578178701.820,4.395,10.742,-0.977,62.500,84.473,0
1578178701.824,-17.090,13.184,-7.812,42.969,87.891,0
1578178701.828,-1.953,13.672,16.113,39.551,91.309,0
1578178701.832,22.949,16.113,24.902,44.922,48.340,0
1578178701.834,3.906,15.137,15.137,46.387,61.523,0
1578178701.838,-18.555,9.277,12.695,48.828,93.262,0
1578178701.842,-23.438,15.137,16.602,43.457,54.688,0
1578178701.846,-0.977,26.367,14.160,50.781,39.062,0
1578178701.850,27.344,24.902,10.254,47.852,60.059,0
1578178701.854,-9.766,21.484,17.578,44.434,116.699,0
1578178701.858,-32.715,29.785,28.320,44.922,94.727,0
1578178701.861,4.883,29.785,30.762,46.875,39.062,0
1578178701.865,26.855,18.066,1.465,53.711,33.691,0
1578178701.869,0.000,9.766,-4.883,50.781,52.734,0
1578178701.873,-17.578,11.230,29.297,45.898,47.363,0
1578178701.877,4.883,12.695,13.184,39.062,35.156,0
1578178701.879,25.391,12.207,-0.977,43.457,61.035,0
1578178701.883,9.766,19.531,17.090,48.340,65.918,0
1578178701.887,-15.625,14.648,22.461,46.387,27.344,0
1578178701.891,-6.836,6.348,21.484,51.758,5.859,0
1578178701.895,19.531,11.719,15.137,53.223,33.691,0
1578178701.899,24.414,21.973,4.395,51.270,53.223,0
1578178701.903,-8.301,21.973,20.020,65.918,30.762,0
1578178701.906,-25.879,18.066,20.996,59.082,-0.488,1
1578178701.910,2.441,16.602,-13.184,34.180,52.734,0
1578178701.914,21.973,23.438,-4.883,33.203,36.621,0
1578178701.918,-2.930,23.438,22.461,42.969,-4.883,0
1578178701.922,-13.672,9.766,1.953,38.574,-3.906,0
1578178701.924,6.836,11.719,-12.207,36.133,-13.184,0
1578178701.928,16.113,11.719,-8.301,43.457,-25.879,0
1578178701.932,2.441,14.648,-7.812,53.223,-55.664,0
1578178701.936,-23.438,9.277,-18.066,45.898,-42.969,0
1578178701.940,-2.441,2.441,-15.137,45.898,11.230,0
1578178701.944,32.227,11.719,-23.438,45.410,33.203,0
1578178701.948,19.531,9.766,-21.973,34.668,-20.020,0
1578178701.951,-13.672,15.137,-14.160,48.340,-8.789,0
1578178701.955,-7.812,19.531,-15.625,54.688,9.277,0
1578178701.959,13.184,15.625,2.441,51.758,-61.523,0
1578178701.963,20.996,13.184,0.977,49.805,-74.219,0
1578178701.967,-9.277,17.090,2.441,49.316,6.836,0
1578178701.969,-27.832,25.879,0.000,47.363,10.254,0
1578178701.973,9.277,22.949,-2.441,43.945,-8.301,0
1578178701.977,25.879,15.137,-7.812,43.945,-23.926,0
1578178701.981,1.465,21.484,-0.977,49.316,-18.555,0
1578178701.985,-10.742,23.926,8.301,56.641,-16.113,0
1578178701.989,18.555,16.113,-4.395,44.922,13.184,0
1578178701.993,24.902,16.113,-18.066,46.387,-20.508,0
1578178701.996,-5.371,16.113,-24.902,54.199,-20.020,0
1578178702.000,-11.230,20.996,3.906,47.363,32.227,0
1578178702.004,2.441,32.227,24.902,46.875,4.395,0
1578178702.008,22.949,24.902,-4.395,35.645,-8.789,0
1578178702.012,5.371,18.066,-1.465,36.621,-14.160,0
1578178702.014,-22.461,26.367,21.484,41.016,25.391,0
1578178702.018,-19.531,22.461,20.020,42.480,65.430,0
1578178702.022,25.879,21.484,12.207,53.223,26.367,0
1578178702.026,39.551,19.531,11.230,50.293,22.949,0
1578178702.030,-9.766,16.113,12.207,48.340,16.602,0
1578178702.034,-26.855,17.578,10.254,60.059,-54.199,0
1578178702.038,2.441,11.719,1.953,56.641,18.066,0
1578178702.041,14.648,0.977,4.883,47.852,71.777,0
1578178702.045,-5.371,9.766,31.738,62.012,54.199,0
1578178702.049,-17.090,13.672,21.973,59.570,31.738,0
1578178702.053,-5.371,10.254,-3.906,42.480,25.879,0
1578178702.057,21.484,9.766,-6.836,51.270,37.109,0
1578178702.060,19.043,6.836,22.461,58.594,25.879,0
1578178702.064,12.207,21.484,26.855,53.711,57.129,0
1578178702.068,20.020,25.879,5.859,49.805,41.992,0
1578178702.072,31.738,17.090,-0.488,51.758,27.832,0
1578178702.076,27.344,17.578,3.418,65.430,36.621,0
1578178702.080,-13.184,17.578,9.277,66.406,84.961,0
1578178702.084,-22.461,13.184,-1.465,47.363,139.648,0
1578178702.087,14.160,17.090,3.418,47.363,133.789,0
1578178702.091,27.832,30.273,24.902,52.246,105.469,0
1578178702.095,3.418,32.715,9.766,51.758,66.406,0
1578178702.099,-4.395,29.785,13.184,56.152,25.879,0
1578178702.103,23.926,24.902,20.508,56.152,40.527,0
1578178702.104,34.180,19.043,0.000,54.688,37.109,0
1578178702.108,1.953,23.438,-11.230,48.828,32.715,0
1578178702.112,-14.160,26.367,1.953,52.246,38.574,0
1578178702.116,10.742,26.367,11.719,58.594,44.922,0
1578178702.120,40.039,21.973,0.000,55.664,29.785,0
1578178702.124,23.926,17.578,-21.484,59.570,-2.930,0
1578178702.128,-16.113,20.020,-20.020,44.922,-18.066,0
1578178702.131,-12.207,25.391,16.113,41.016,6.348,0
1578178702.135,21.484,20.508,17.090,47.852,42.480,0
1578178702.139,23.926,14.648,4.395,49.805,24.902,0
1578178702.143,1.953,15.137,16.113,61.035,-63.965,0
1578178702.147,-20.996,12.695,22.461,61.523,-54.199,0
1578178702.164,-1.465,20.020,8.789,51.758,10.742,0
1578178702.168,14.648,29.297,-2.930,52.734,-24.902,0
1578178702.172,5.371,23.926,8.789,56.152,-1.953,0
1578178702.176,4.395,14.160,7.812,51.758,14.648,0
1578178702.180,-1.953,19.531,2.930,50.293,-24.902,0
1578178702.184,3.906,30.762,3.906,44.922,-10.742,0
1578178702.188,-4.395,26.367,8.789,45.898,45.898,0
1578178702.191,-25.879,25.391,20.020,46.387,17.090,0
1578178702.195,-9.766,28.320,20.020,48.340,-13.184,0
1578178702.199,35.156,33.203,-0.488,57.617,-14.648,0
1578178702.203,15.625,41.016,10.742,49.316,-20.996,0
1578178702.207,-25.879,39.062,37.598,44.922,0.000,0
1578178702.209,-5.859,29.297,23.926,45.898,19.043,0
1578178702.213,17.578,20.996,-0.977,52.734,-17.578,0
1578178702.217,32.715,28.320,1.465,59.570,-66.895,0
1578178702.221,15.137,38.086,20.508,52.734,-22.949,0
1578178702.225,0.977,30.273,11.230,48.340,24.902,0
1578178702.229,28.320,21.973,-9.277,50.781,14.648,0
1578178702.233,29.297,24.414,-12.207,56.152,-23.926,0
1578178702.236,-4.395,29.785,5.859,59.082,20.508,0
1578178702.240,-6.836,33.691,1.465,49.316,80.078,0
1578178702.244,27.344,38.086,-12.695,47.852,45.898,0
1578178702.248,39.062,34.180,7.812,52.246,6.836,0
1578178702.252,18.066,31.738,10.254,49.316,-18.066,0
1578178702.254,-1.953,36.621,11.230,52.246,18.066,0
1578178702.258,-7.812,38.086,12.695,53.711,42.969,0
1578178702.262,27.344,35.156,8.301,59.570,25.391,0
1578178702.266,27.344,31.250,0.977,66.406,-1.953,0
1578178702.270,10.254,34.668,5.371,67.383,40.039,0
1578178702.274,13.672,33.691,0.977,57.617,62.988,0
1578178702.278,32.227,30.762,-2.930,56.641,6.836,0
1578178702.281,49.316,28.320,3.906,66.406,-80.566,0
1578178702.285,17.578,24.414,-2.441,62.988,1.953,0
1578178702.289,-16.113,26.855,-4.883,43.457,61.523,0
1578178702.293,11.230,29.785,5.371,40.527,18.555,0
1578178702.297,33.203,23.438,-7.812,46.875,20.508,0
1578178702.299,3.906,12.207,-18.555,53.711,-19.531,0
1578178702.303,-0.488,16.602,2.441,52.734,27.832,0
1578178702.307,16.113,24.902,-5.371,48.340,21.973,0
1578178702.311,28.320,27.832,-31.250,45.898,-40.527,0
1578178702.315,22.949,27.832,-17.578,63.965,25.391,0
1578178702.319,8.789,20.020,2.441,66.406,51.270,0
1578178702.323,0.977,25.391,13.672,55.664,15.625,0
1578178702.326,17.090,30.762,-4.883,49.805,13.184,0
1578178702.330,3.906,21.484,-19.531,37.598,63.477,0
1578178702.334,-9.277,27.344,16.113,47.363,30.273,0
1578178702.338,1.465,31.250,22.461,56.152,-20.996,0
1578178702.342,23.438,19.531,9.277,49.805,-14.160,0
1578178702.344,37.598,24.902,7.324,45.410,27.832,0
1578178702.348,0.977,27.832,12.207,61.523,47.852,0
1578178702.352,-8.301,30.273,23.438,69.336,-20.020,0
1578178702.356,26.367,29.297,31.738,55.176,28.320,0
1578178702.360,38.086,13.184,22.949,47.852,104.980,0
1578178702.364,15.625,11.230,12.695,53.223,54.199,0
1578178702.368,-9.766,24.414,37.109,57.617,79.102,0
1578178702.371,14.648,29.297,21.973,46.875,66.895,0
1578178702.375,48.828,30.762,11.230,42.480,29.297,0
1578178702.379,15.625,28.809,30.762,49.805,1.953,0
1578178702.383,-18.066,26.855,25.391,62.988,14.160,0
1578178702.387,-9.766,31.250,19.043,62.500,19.531,0
1578178702.389,26.367,30.762,21.484,53.711,17.578,0
1578178702.393,28.809,20.020,22.949,62.500,22.461,0
1578178702.397,9.766,13.184,11.230,62.988,15.625,0
1578178702.401,8.789,17.090,5.859,62.012,30.762,0
1578178702.405,14.648,24.902,7.812,60.547,43.945,0
1578178702.409,13.184,33.203,12.695,53.711,82.520,0
1578178702.413,-16.113,36.133,8.301,55.176,118.652,0
1578178702.416,-11.230,33.203,7.324,54.199,96.191,0
1578178702.420,31.250,35.156,36.133,69.336,135.254,0
1578178702.424,36.621,25.879,31.250,78.613,104.980,0
1578178702.428,1.465,20.996,10.254,60.059,27.832,0
1578178702.432,-20.508,28.809,16.113,61.523,17.090,0
1578178702.434,5.859,29.297,14.648,63.965,1.465,0
1578178702.438,40.527,26.367,-3.418,49.316,-33.691,0
1578178702.442,12.695,24.414,1.465,51.270,5.371,0
1578178702.446,-35.156,14.648,13.672,56.152,18.066,0
1578178702.450,-16.113,12.695,15.625,62.500,-35.645,0
1578178702.454,20.508,21.973,15.137,61.035,32.227,0
1578178702.458,17.090,15.137,-6.836,52.246,52.246,0
1578178702.461,-3.418,12.695,10.254,58.594,3.906,0
1578178702.465,0.977,11.230,47.363,79.590,-36.621,0
1578178702.469,13.672,14.160,28.320,67.871,-42.969,0
1578178702.473,22.461,11.230,16.602,40.527,21.973,0
1578178702.477,9.766,4.395,26.367,53.711,40.039,0
1578178702.479,-9.766,11.230,34.180,60.547,65.430,0
1578178702.483,1.465,5.859,15.137,55.176,-14.160,0
1578178702.487,24.414,2.930,12.695,64.453,-23.438,0
1578178702.491,8.301,6.348,28.809,73.730,43.945,0
1578178702.495,-22.949,2.930,31.738,53.223,80.078,0
1578178702.499,-11.719,8.789,11.230,38.086,104.492,0
1578178702.503,10.742,16.602,-2.930,46.387,95.703,0
1578178702.506,5.371,17.090,17.578,60.059,85.449,0
1578178702.510,-11.719,20.996,20.508,54.688,78.125,0
1578178702.514,23.438,16.113,8.301,53.223,74.219,0
1578178702.518,42.480,14.160,4.395,58.594,112.793,0
1578178702.522,0.000,26.855,4.883,47.852,108.887,0
1578178702.539,-33.691,25.879,8.301,50.781,46.387,0
1578178702.543,-24.902,16.602,7.812,54.199,90.332,0
1578178702.547,0.488,20.996,0.000,43.945,107.910,0
1578178702.551,16.113,20.508,2.930,47.363,55.176,0
1578178702.555,10.742,17.578,5.859,46.387,56.152,0
1578178702.559,-7.324,16.113,-1.953,41.992,82.520,0
1578178702.563,20.020,23.438,5.859,50.781,95.703,0
1578178702.566,50.781,17.090,13.184,58.105,38.086,0
1578178702.570,20.996,5.371,6.348,59.570,-85.938,0
1578178702.574,-24.414,12.695,1.465,57.617,-33.203,0
1578178702.578,-18.066,17.090,14.648,49.805,0.488,0
1578178702.582,22.461,6.836,18.555,58.105,-35.156,0
1578178702.584,11.230,4.395,-1.953,51.270,-35.156,0
1578178702.588,-31.738,4.883,-4.395,34.668,27.832,0
1578178702.592,-30.762,9.277,13.184,41.504,26.855,0
1578178702.596,8.301,19.043,12.695,41.016,-14.160,0
1578178702.600,19.043,18.555,-7.812,40.527,-2.441,0
1578178702.604,-8.301,10.254,-3.906,47.852,26.367,0
1578178702.608,-6.348,8.301,20.020,52.734,12.207,0
1578178702.611,26.855,17.090,29.297,53.711,-1.953,0
1578178702.615,25.391,17.090,-2.930,54.199,31.738,0
1578178702.619,-4.883,9.766,-15.625,47.852,5.371,0
1578178702.623,-25.391,2.441,31.738,41.992,2.441,0
1578178702.627,-6.836,17.578,28.320,39.551,-0.488,0
1578178702.629,25.391,33.203,14.160,41.016,16.113,0
1578178702.633,3.906,17.090,27.832,48.828,46.387,0
1578178702.637,-25.391,8.789,29.297,55.664,31.738,0
1578178702.641,-7.812,19.043,20.508,61.035,24.414,1
1578178702.645,31.738,17.090,6.348,52.734,39.551,0
1578178702.649,33.691,13.672,-0.488,52.734,40.527,0
1578178702.653,3.418,24.902,18.066,58.594,25.879,0
1578178702.656,-6.348,28.320,22.461,59.082,58.105,0
1578178702.660,9.277,22.949,-19.043,40.039,37.109,0
1578178702.664,11.719,28.320,-5.859,47.363,20.996,0
1578178702.668,-14.160,30.762,41.992,65.430,89.844,0
1578178702.672,-5.371,31.250,26.367,47.363,94.238,0
1578178702.674,16.113,21.484,-2.441,37.598,31.738,0
1578178702.678,24.414,12.695,-0.488,40.039,72.754,0
1578178702.682,16.602,19.043,1.465,51.270,53.711,0
1578178702.686,4.883,22.461,-5.371,58.105,20.508,0
1578178702.690,26.855,22.461,-4.883,42.480,113.770,0
1578178702.694,31.250,18.555,-11.230,38.086,159.668,0
1578178702.698,4.395,14.648,-15.137,49.316,35.645,0
1578178702.701,-7.812,11.230,-11.230,65.918,-10.254,0
1578178702.705,-10.742,14.648,-0.977,62.500,40.039,0
1578178702.709,1.953,14.160,21.484,45.898,7.812,0
1578178702.713,19.531,8.789,14.160,45.898,22.461,0
1578178702.717,7.324,10.254,4.395,48.828,-12.207,0
1578178702.719,-2.441,15.625,11.719,51.758,-35.645,0
1578178702.723,18.555,20.996,13.184,60.059,-32.227,0
1578178702.727,53.223,28.320,3.906,66.895,-71.289,0
1578178702.731,31.250,25.391,3.418,58.105,-31.250,0
1578178702.735,15.137,26.855,9.766,50.293,4.395,0
1578178702.739,24.414,27.832,1.465,62.012,-6.836,0
1578178702.743,22.461,21.973,3.418,62.012,41.504,0
1578178702.746,9.766,18.555,-10.742,41.504,55.664,0
1578178702.750,-12.207,17.090,-6.836,39.062,49.316,0
1578178702.754,1.953,20.508,20.996,46.387,16.113,0
1578178702.758,23.926,24.902,0.000,42.969,20.996,0
1578178702.762,22.461,30.762,-12.695,40.039,30.762,0
1578178702.764,-1.953,28.809,7.324,54.199,-36.621,0
1578178702.768,-1.953,22.949,20.020,56.152,-30.762,0
1578178702.772,16.113,19.531,3.906,41.504,17.090,0
1578178702.776,32.715,17.090,2.441,50.293,78.125,0
1578178702.780,17.578,15.137,10.742,61.035,59.570,0
1578178702.784,6.836,16.602,5.859,57.129,22.949,0
1578178702.788,8.789,17.578,-6.348,65.430,46.875,0
1578178702.791,-10.742,18.066,-11.230,67.383,21.973,0
1578178702.795,-14.160,34.180,22.949,59.570,11.719,0
1578178702.799,-21.484,39.062,27.832,54.688,-35.156,0
1578178702.803,7.812,28.809,18.066,57.129,-33.203,0
1578178702.807,45.898,15.625,16.602,64.453,-16.602,0
1578178702.809,18.555,20.020,25.391,65.430,-1.953,0
1578178702.813,-23.926,32.715,27.832,58.594,-2.441,0
1578178702.817,-6.348,22.461,13.184,53.223,13.184,0
1578178702.821,15.137,20.508,10.742,51.270,34.180,0
1578178702.825,21.484,26.855,9.277,50.781,14.160,0
1578178702.829,3.418,27.344,12.695,59.570,-2.930,0
1578178702.833,-6.836,35.156,4.395,49.805,8.301,0
1578178702.836,24.902,41.016,12.207,49.316,18.555,0
1578178702.840,28.320,35.156,33.203,62.988,-22.949,0
1578178702.844,-1.465,37.598,29.297,68.359,-0.488,0
1578178702.848,20.508,45.410,28.809,68.359,75.684,0
1578178702.852,47.852,33.691,19.531,53.223,77.148,0
1578178702.854,28.809,18.066,3.906,39.551,40.527,0
1578178702.858,-0.977,21.973,-0.977,35.156,35.645,0
1578178702.862,-24.902,26.855,18.066,43.457,114.258,0
1578178702.866,1.953,17.578,25.879,46.875,75.195,0
1578178702.870,23.926,16.602,11.719,44.922,79.590,0
1578178702.874,20.020,28.809,-1.953,49.805,108.887,0
1578178702.878,-5.371,33.203,2.930,46.387,108.398,0
1578178702.881,-10.742,36.133,31.250,34.668,84.961,0
1578178702.885,5.371,32.227,26.855,40.039,42.969,0
1578178702.889,-7.324,20.996,7.324,37.598,95.703,0
1578178702.893,-34.668,23.438,16.113,36.621,113.281,0
1578178702.897,-17.578,31.250,24.414,44.922,43.457,0
1578178702.914,13.184,30.762,15.137,46.387,44.922,0
1578178702.918,18.066,33.691,9.277,41.504,113.281,0
1578178702.922,-15.137,33.203,18.555,43.457,91.797,0
1578178702.926,-39.062,27.344,24.902,41.504,59.082,0
1578178702.930,-4.883,27.832,11.230,36.133,83.984,0
1578178702.934,16.113,29.785,-6.836,41.504,32.227,0
1578178702.938,-10.742,33.203,6.348,45.898,19.043,0
1578178702.941,-32.715,35.645,19.043,46.387,55.664,0
1578178702.945,6.836,26.855,7.812,48.828,66.895,0
1578178702.949,28.320,28.809,-17.578,56.641,70.801,0
1578178702.953,17.090,32.715,-7.812,43.457,74.707,0
1578178702.957,-6.348,21.484,13.184,30.273,39.062,0
1578178702.959,-8.789,26.855,-6.348,42.969,58.105,0
1578178702.963,15.625,32.715,-22.461,43.945,38.086,0
1578178702.967,2.441,31.250,-15.137,34.668,-21.973,0
1578178702.971,-20.996,33.691,4.395,38.574,-25.879,0
1578178702.975,-7.812,31.738,6.348,39.551,-20.996,0
1578178702.979,9.766,29.297,1.953,39.062,56.641,0
1578178702.983,15.137,25.391,18.066,37.109,124.512,0
1578178702.986,6.348,25.879,29.297,40.527,49.805,0
1578178702.990,-8.789,30.762,16.113,63.477,5.859,0
1578178702.994,-4.883,21.484,0.977,55.176,1.465,0
1578178702.998,8.301,21.484,19.043,37.109,-56.152,0
1578178703.002,-8.789,29.785,22.949,37.598,-35.156,0
1578178703.004,-35.645,28.320,20.020,39.551,-32.715,0
1578178703.008,-7.812,35.156,30.273,43.945,-72.754,0
1578178703.012,21.484,38.086,32.227,46.387,-42.480,0
1578178703.016,15.625,22.461,27.344,50.293,-14.648,0
1578178703.020,6.836,21.484,36.621,41.016,4.395,0
1578178703.024,8.301,27.832,30.273,44.434,30.273,0
1578178703.028,7.324,18.555,24.414,52.734,12.695,0
1578178703.031,1.953,25.391,29.297,45.410,-25.391,0
1578178703.035,-15.625,33.691,8.789,41.504,10.254,0
1578178703.039,-12.207,27.344,23.926,41.504,54.688,0
1578178703.043,10.254,27.344,40.527,47.852,40.039,0
1578178703.047,26.367,23.926,11.230,49.316,-38.574,0
1578178703.049,10.254,23.926,17.090,51.758,-31.250,0
1578178703.053,-7.812,31.250,52.246,62.012,15.625,0
1578178703.057,21.484,22.949,45.898,53.711,-14.160,0
1578178703.061,32.227,15.137,25.391,44.922,13.672,0
1578178703.065,7.324,27.344,36.133,66.406,-2.930,0
1578178703.069,-20.508,35.645,40.527,58.105,-41.992,0
1578178703.073,-15.625,38.086,52.734,49.805,40.039,0
1578178703.076,23.926,41.504,31.250,58.594,37.109,0
1578178703.080,24.902,32.227,10.254,53.711,-29.785,0
1578178703.084,2.930,29.785,48.828,55.176,-43.945,0
1578178703.088,16.602,32.715,55.664,62.012,-20.508,0
1578178703.092,35.645,23.438,41.992,56.641,8.789,0
1578178703.094,32.715,21.484,45.410,49.805,60.059,0
1578178703.098,-7.324,27.344,41.016,52.734,10.742,0
1578178703.102,-17.578,30.273,37.109,57.129,4.883,0
1578178703.106,15.137,28.320,31.738,48.828,61.523,0
1578178703.110,33.691,24.414,19.043,43.945,35.156,0
1578178703.114,0.977,21.973,10.742,69.336,-2.441,0
1578178703.118,-22.461,22.461,22.949,65.918,23.438,0
1578178703.121,0.977,23.926,16.113,39.062,60.059,0
1578178703.125,39.062,22.461,12.207,43.457,20.020,0
1578178703.129,33.203,19.531,34.180,63.477,-4.395,0
1578178703.133,-2.441,20.020,36.133,57.617,55.176,0
1578178703.137,4.883,30.762,25.879,38.086,31.250,0
1578178703.139,14.648,37.109,22.949,51.758,20.020,0
1578178703.143,12.207,34.180,19.531,52.734,9.766,0
1578178703.147,-1.953,29.785,18.066,53.711,23.438,0
1578178703.151,-20.020,27.832,19.531,62.500,50.293,0
1578178703.155,2.930,28.320,22.949,58.594,53.711,0
1578178703.159,30.273,26.855,18.555,58.105,93.262,0
1578178703.163,9.277,28.320,20.996,57.617,138.184,0
1578178703.166,-14.160,19.043,15.625,56.152,122.070,0
1578178703.170,11.719,19.043,20.508,57.129,59.082,0
1578178703.174,31.738,29.785,21.973,57.129,-4.395,0
1578178703.178,17.578,21.973,13.672,51.270,-60.059,0
1578178703.182,-5.371,17.090,26.367,56.152,-30.762,0
1578178703.184,0.977,23.438,31.738,66.895,-24.414,0
1578178703.188,36.621,33.691,12.695,55.664,-53.223,0
1578178703.192,23.926,30.762,9.277,56.641,-61.523,0
1578178703.196,-8.301,29.297,29.785,74.707,-9.277,0
1578178703.200,12.695,31.250,33.203,73.730,14.648,0
1578178703.204,29.785,20.996,10.742,56.152,-4.883,0
1578178703.208,25.391,11.719,-15.625,41.992,-31.250,0
1578178703.211,-1.465,18.555,7.324,41.016,44.434,0
1578178703.215,-16.113,18.066,39.551,47.852,62.988,0
1578178703.219,11.230,4.883,16.602,57.617,-22.949,0
1578178703.223,16.602,10.254,9.766,55.176,27.344,0
1578178703.227,-8.789,13.672,7.324,45.898,41.016,0
1578178703.229,-10.254,9.766,16.113,48.828,32.715,0
1578178703.233,42.969,20.508,18.066,69.824,53.711,0
1578178703.237,49.316,25.391,1.953,75.684,-7.812,0
1578178703.241,15.625,26.367,23.926,71.289,-18.066,0
1578178703.245,15.137,27.344,31.250,66.406,-10.742,0
1578178703.249,20.508,21.484,6.348,57.129,35.645,0
1578178703.253,36.621,27.832,-4.395,56.641,59.570,0
1578178703.256,24.414,29.297,27.832,52.246,16.602,0
1578178703.260,-17.090,22.461,40.039,53.711,35.156,0
1578178703.264,-16.113,26.855,9.766,55.664,26.855,0
1578178703.268,13.672,29.297,-2.441,45.898,7.324,0
1578178703.272,29.785,29.785,8.789,53.223,63.477,0
1578178703.289,20.996,21.484,14.648,56.641,82.520,0
1578178703.293,-6.836,13.184,6.348,45.410,16.602,0
1578178703.297,-15.625,17.578,-2.930,59.570,-1.953,0
1578178703.301,28.809,11.230,1.953,59.570,38.574,0
1578178703.305,11.719,1.465,3.906,48.828,48.340,0
1578178703.309,-28.809,3.418,-2.441,51.270,63.965,0
1578178703.313,18.066,5.371,5.859,45.898,17.090,0
1578178703.316,32.227,7.324,16.602,37.598,-9.766,0
1578178703.320,-10.254,5.859,14.648,55.176,17.090,0
1578178703.324,-36.621,0.977,-1.465,48.340,7.812,0
1578178703.328,-2.441,1.465,14.648,40.527,5.371,0
1578178703.332,34.180,14.160,27.344,63.965,-18.555,0
1578178703.334,24.414,19.531,14.160,69.336,-16.113,0
1578178703.338,1.953,11.230,18.555,61.523,7.324,0
1578178703.342,0.488,13.184,23.926,59.570,-8.301,0
1578178703.346,22.461,12.695,18.555,58.105,26.367,0
1578178703.350,26.855,11.230,6.348,51.270,33.203,0
1578178703.354,-6.348,15.137,12.695,58.594,89.355,0
1578178703.358,-13.672,16.113,19.043,68.848,44.434,0
1578178703.361,17.578,13.184,31.738,68.359,33.691,0
1578178703.365,26.855,14.160,11.230,54.688,112.305,0
1578178703.369,3.418,24.414,-11.719,61.035,14.160,1
1578178703.373,-22.461,24.902,26.367,70.801,-30.273,0
1578178703.377,9.277,13.672,23.438,57.617,-19.043,0
1578178703.379,30.273,13.672,5.859,48.828,32.715,0
1578178703.383,5.371,20.508,3.906,44.922,60.547,0
1578178703.387,-7.324,13.184,6.836,50.781,33.203,0
1578178703.391,2.441,8.301,5.371,53.711,43.945,0
1578178703.395,14.160,7.324,-5.371,51.758,5.859,0
1578178703.399,5.371,7.324,-3.906,55.176,49.316,0
1578178703.403,-15.625,7.812,10.254,64.453,75.684,0
1578178703.406,-1.953,10.254,22.949,67.383,27.344,0
1578178703.410,33.203,15.137,-6.348,46.387,71.777,0
1578178703.414,30.762,10.742,-17.578,40.527,58.105,0
1578178703.418,14.160,14.648,22.949,53.223,-9.766,0
1578178703.422,-4.883,21.973,23.438,44.922,27.344,0
1578178703.424,3.418,20.996,8.789,50.781,-22.461,0
1578178703.428,38.086,26.367,24.902,65.918,-13.184,0
1578178703.432,27.344,27.832,27.832,71.777,33.203,0
1578178703.436,-5.371,16.602,10.254,63.477,6.836,0
1578178703.440,6.836,16.113,2.930,68.359,7.324,0
1578178703.444,32.227,23.926,0.488,65.430,-3.418,0
1578178703.448,20.996,27.344,7.812,54.199,0.000,0
1578178703.451,-12.695,18.066,4.883,61.035,36.621,0
1578178703.455,8.789,14.160,-3.418,63.965,62.500,0
1578178703.459,25.391,23.438,16.113,65.918,74.707,0
1578178703.463,25.391,22.461,20.020,61.523,86.914,0
1578178703.467,35.156,18.555,23.926,62.988,130.371,0
1578178703.469,9.766,15.137,23.926,59.570,144.531,0
1578178703.473,9.766,18.066,24.414,59.082,65.918,0
1578178703.477,34.668,25.879,23.926,60.547,64.453,0
1578178703.481,3.906,22.949,22.949,57.129,55.176,0
1578178703.485,-21.484,10.254,42.480,58.105,81.543,0
1578178703.489,19.531,14.648,30.762,57.129,70.801,0
1578178703.493,42.969,20.020,16.113,54.688,40.039,0
1578178703.496,17.578,15.137,2.930,46.387,43.457,0
1578178703.500,-5.371,6.836,17.578,48.340,39.062,0
1578178703.504,15.137,0.000,46.875,61.035,58.594,0
1578178703.508,38.574,10.254,25.879,62.988,87.402,0
1578178703.512,20.020,12.207,24.414,56.641,99.609,0
1578178703.514,-22.461,9.766,38.086,57.129,41.504,0
1578178703.518,-13.184,9.766,33.203,56.152,17.578,0
1578178703.522,41.016,2.441,14.160,51.270,36.133,0
1578178703.526,27.832,0.000,9.277,60.547,47.363,0
1578178703.530,-7.812,1.953,21.484,61.523,58.105,0
1578178703.534,-16.602,12.207,15.137,54.688,69.336,0
1578178703.538,9.277,14.648,-2.441,56.641,58.594,0
1578178703.541,18.066,9.766,-7.324,58.105,7.324,0
1578178703.545,-13.184,11.719,27.832,50.781,3.906,0
1578178703.549,-22.949,12.695,36.621,63.477,22.461,0
1578178703.553,2.441,15.137,22.461,67.383,-0.977,0
1578178703.557,50.293,15.625,16.602,50.293,-52.734,0
1578178703.559,42.969,17.578,13.672,46.875,-23.926,0
1578178703.563,-20.996,17.090,17.090,51.270,-41.016,0
1578178703.567,-7.812,21.973,16.113,52.734,-39.551,0
1578178703.571,26.855,24.414,6.836,54.688,-22.461,0
1578178703.575,7.324,14.160,6.348,53.711,2.930,0
1578178703.579,-12.695,13.184,-3.906,51.270,9.766,0
1578178703.583,14.160,16.113,-20.508,54.199,-14.648,0
1578178703.586,24.414,6.348,-6.836,51.270,-1.465,0
1578178703.590,8.789,12.695,25.879,45.898,-45.410,0
1578178703.594,-14.648,24.902,33.203,47.363,-45.898,0
1578178703.598,-22.461,21.484,26.855,47.852,-13.672,0
1578178703.602,15.137,19.531,25.391,44.434,-33.691,0
1578178703.604,30.762,24.902,35.156,52.734,-18.555,0
1578178703.608,8.301,26.855,31.250,55.176,9.766,0
1578178703.612,-15.625,22.949,22.461,50.293,5.859,0
1578178703.616,0.977,13.184,26.855,52.246,8.301,0
1578178703.620,21.484,10.254,20.020,56.152,19.531,0
1578178703.624,14.648,17.578,-1.953,59.082,30.273,0
1578178703.628,-9.766,26.367,-3.418,43.457,16.113,0
1578178703.631,-12.695,38.086,22.949,33.691,27.832,0
1578178703.635,9.277,36.133,15.137,42.480,45.898,0
1578178703.639,20.508,25.391,-8.789,41.016,50.293,0
1578178703.643,-1.953,29.297,3.906,48.340,52.734,0
1578178703.647,-14.648,27.344,21.973,43.457,19.043,0
1578178703.664,13.672,25.879,15.625,42.969,-13.184,0
1578178703.668,36.133,30.273,18.555,62.500,40.039,0
1578178703.672,13.672,22.949,21.973,53.223,73.242,0
1578178703.676,-0.488,24.902,31.250,55.664,36.133,0
1578178703.680,14.160,32.715,27.344,50.781,6.348,0
1578178703.684,17.578,31.250,4.395,41.016,38.086,0
1578178703.688,16.602,26.855,7.812,48.340,20.020,0
1578178703.691,6.836,26.855,26.367,50.293,-12.207,0
1578178703.695,11.719,29.785,19.531,58.105,-21.973,0
1578178703.699,14.160,24.902,-2.930,54.688,40.039,0
1578178703.703,-1.465,23.926,9.766,57.129,78.125,0
1578178703.707,-20.508,23.438,33.691,60.547,111.328,0
1578178703.709,0.488,25.391,18.555,55.664,137.207,0
1578178703.713,32.227,31.738,5.371,52.734,89.355,0
1578178703.717,18.555,39.062,18.555,48.340,79.102,0
1578178703.721,7.812,48.340,29.297,50.293,41.504,0
1578178703.725,-0.488,34.180,22.461,49.316,90.332,0
1578178703.729,1.465,22.461,7.324,50.781,143.066,0
1578178703.733,12.695,26.367,12.695,46.387,134.766,0
1578178703.736,-3.418,21.973,28.809,48.828,104.492,0
1578178703.740,-20.996,16.113,7.324,54.199,48.828,0
1578178703.744,-5.859,23.438,-8.789,49.316,53.711,0
1578178703.748,24.414,22.949,10.742,58.594,76.172,0
1578178703.752,34.668,21.973,8.301,60.547,10.742,0
1578178703.754,5.859,33.691,11.230,53.223,-34.180,0
1578178703.758,-17.578,29.785,20.020,46.875,19.043,0
1578178703.762,5.371,17.090,12.207,45.898,13.184,0
1578178703.766,8.301,16.113,4.395,62.988,-25.391,0
1578178703.770,-18.066,26.367,19.531,72.266,14.648,0
1578178703.774,1.953,32.227,22.461,42.480,52.734,0
1578178703.778,24.414,32.715,15.137,35.156,3.906,0
1578178703.781,-3.906,20.020,20.020,39.062,-19.043,0
1578178703.785,-30.273,16.602,-0.488,42.480,14.648,0
1578178703.789,-24.902,28.809,7.812,58.105,-13.184,0
1578178703.793,13.184,35.156,35.156,58.594,-48.828,0
1578178703.797,17.090,33.691,20.996,38.574,-13.672,0
1578178703.799,-22.949,28.809,17.090,41.992,25.879,0
1578178703.803,-16.113,25.391,33.691,57.129,44.922,0
1578178703.807,9.766,24.414,31.250,41.504,28.809,0
1578178703.811,11.719,20.508,12.695,25.879,-7.324,0
1578178703.815,6.348,21.973,14.648,35.645,25.391,0
1578178703.819,-15.137,23.438,19.043,47.852,65.918,0
1578178703.823,0.000,20.508,18.066,53.223,-1.953,0
1578178703.826,36.621,15.137,5.371,48.340,-4.395,0
1578178703.830,27.832,24.902,5.859,56.152,21.973,0
1578178703.834,-8.301,30.762,46.387,62.988,-33.691,0
1578178703.838,-16.602,24.414,42.480,44.922,-66.895,0
1578178703.842,17.578,28.809,20.020,41.016,10.742,0
1578178703.844,37.109,31.250,25.879,41.504,72.266,0
1578178703.848,-1.465,27.344,33.203,44.434,1.953,0
1578178703.852,-21.973,24.414,24.902,42.969,-1.465,0
1578178703.856,2.441,26.855,12.207,37.109,26.367,0
1578178703.860,20.020,21.973,8.301,43.945,29.297,0
1578178703.864,6.836,19.531,6.348,48.340,34.180,0
1578178703.868,3.906,28.809,23.926,51.758,42.969,0
1578178703.871,5.859,27.832,6.348,33.691,35.645,0
1578178703.875,-8.789,18.555,6.348,34.180,76.172,0
1578178703.879,1.465,12.207,36.621,62.988,68.359,0
1578178703.883,-16.113,18.066,21.484,52.246,63.965,0
1578178703.887,-9.277,31.250,20.508,36.621,33.203,0
1578178703.889,20.996,33.203,27.344,41.016,3.906,0
1578178703.893,8.789,23.926,31.738,60.547,28.320,0
1578178703.897,-10.742,22.949,26.367,63.477,29.297,0
1578178703.901,-11.230,24.902,21.973,41.992,23.926,0
1578178703.905,21.973,19.043,21.973,44.922,31.250,0
1578178703.909,21.484,12.695,7.812,45.898,0.000,0
1578178703.913,-20.508,22.949,10.254,42.969,9.277,0
1578178703.916,-28.809,22.461,18.066,43.457,54.688,0
1578178703.920,-6.348,14.160,33.203,32.715,16.602,0
1578178703.924,15.137,19.531,26.855,43.945,-10.742,0
1578178703.928,13.672,20.020,10.742,55.664,9.766,0
1578178703.932,-15.625,19.531,22.949,53.223,7.812,0
1578178703.934,-15.137,30.762,32.715,50.293,45.410,0
1578178703.938,20.996,29.297,25.879,59.570,51.758,0
1578178703.942,25.391,21.973,28.809,68.848,0.977,0
1578178703.946,6.836,37.109,36.621,54.688,15.137,0
1578178703.950,11.230,35.645,30.762,51.758,60.059,0
1578178703.954,22.949,21.484,11.230,52.246,51.758,0
1578178703.958,16.113,20.508,-5.859,34.180,22.949,0
1578178703.961,5.371,25.391,9.277,33.691,52.246,0
1578178703.965,1.465,24.414,36.621,47.363,33.691,0
1578178703.969,9.277,23.438,28.809,58.105,-8.789,0
1578178703.973,13.184,25.391,27.344,70.312,-1.465,0
1578178703.977,-4.395,22.461,40.039,70.801,-9.277,0
1578178703.979,-12.695,14.648,50.781,61.035,26.855,0
1578178703.983,20.508,12.207,33.691,51.270,39.551,0
1578178703.987,33.203,23.438,16.113,56.152,33.203,0
1578178703.991,19.531,31.738,23.438,59.570,26.855,0
1578178703.995,5.371,26.855,23.926,59.570,9.277,0
1578178703.999,2.930,28.320,14.160,55.176,42.480,0
1578178704.003,20.996,30.273,5.859,43.457,62.012,0
1578178704.006,16.602,21.973,32.715,57.129,1.465,0
1578178704.010,-4.395,15.625,54.688,67.383,20.508,0
1578178704.014,13.184,23.926,40.527,65.430,-11.230,0
1578178704.018,41.504,29.297,30.273,54.199,-4.883,0
1578178704.022,27.832,24.414,30.762,56.641,34.180,0
1578178704.039,-6.348,25.879,26.855,65.918,3.906,0
1578178704.043,-0.488,30.273,21.973,61.523,3.906,0
1578178704.047,12.207,31.250,22.461,64.941,27.832,0
1578178704.051,23.926,34.668,23.926,69.824,21.973,0
1578178704.055,16.113,38.574,21.973,63.965,20.996,0
1578178704.059,6.348,41.016,19.043,52.246,-4.395,0
1578178704.063,20.996,33.691,34.180,73.242,48.828,0
1578178704.066,28.809,21.973,24.902,66.895,59.570,0
1578178704.070,1.953,23.926,17.090,56.152,2.930,0
1578178704.074,-25.391,28.320,15.137,68.848,30.762,0
1578178704.078,-2.441,29.785,27.344,57.617,25.391,0
1578178704.082,22.461,29.785,39.062,47.852,20.996,0
1578178704.084,27.832,33.691,17.578,62.500,-6.836,0
1578178704.088,13.672,40.527,21.973,65.918,47.852,0
1578178704.092,0.977,38.574,31.738,62.500,67.383,0
1578178704.096,34.180,37.109,23.926,64.453,11.719,0
1578178704.100,38.574,36.621,10.742,59.082,43.945,0
1578178704.104,13.672,36.133,5.859,60.547,-5.859,0
1578178704.108,-3.906,37.109,28.320,57.129,24.902,0
1578178704.111,3.906,39.062,43.457,58.594,88.867,0
1578178704.115,31.738,32.227,15.137,62.500,35.156,0
1578178704.119,20.508,17.578,-0.488,57.617,0.488,0
1578178704.123,-8.789,20.996,28.320,62.012,29.297,1
1578178704.127,-1.953,26.855,29.785,54.688,46.875,0
1578178704.129,34.668,27.344,22.461,51.758,2.441,0
1578178704.133,14.160,32.227,31.250,51.270,34.180,0
1578178704.137,-15.137,37.598,43.945,50.781,90.820,0
1578178704.141,13.184,41.504,32.715,61.523,49.316,0
1578178704.145,32.227,44.922,25.879,74.219,63.477,0
1578178704.149,32.715,33.203,24.902,70.312,115.234,0
1578178704.153,11.719,22.461,31.250,64.453,46.387,0
1578178704.156,-4.395,32.715,37.598,61.035,16.602,0
1578178704.160,16.602,30.762,2.930,51.758,42.969,0
1578178704.164,36.133,29.785,5.371,49.805,50.781,0
1578178704.168,28.809,30.762,36.133,53.223,-18.555,0
1578178704.172,15.625,31.738,34.180,64.941,30.273,0
1578178704.174,12.207,31.738,26.855,61.523,69.336,0
1578178704.178,22.461,28.809,19.531,57.129,48.828,0
1578178704.182,23.438,29.785,22.949,71.289,74.219,0
1578178704.186,-2.441,22.461,26.367,65.430,12.695,0
1578178704.190,-11.230,21.973,15.137,48.340,-38.574,0
1578178704.194,11.719,31.738,17.578,57.129,18.066,0
1578178704.198,25.879,38.086,38.086,67.383,106.445,0
1578178704.201,-6.836,35.645,27.344,61.035,47.363,0
1578178704.205,-16.113,30.273,16.602,52.246,8.789,0
1578178704.209,13.672,25.879,38.574,54.688,-16.113,0
1578178704.213,27.344,37.109,39.551,57.129,-6.348,0
1578178704.217,7.324,44.434,34.668,53.223,13.672,0
1578178704.219,-14.160,37.598,38.574,41.016,40.527,0
1578178704.223,-1.953,31.738,23.438,41.016,50.781,0
1578178704.227,22.949,37.109,9.277,55.664,-28.320,0
1578178704.231,4.395,36.133,22.461,54.199,21.484,0
1578178704.235,-12.207,28.809,26.367,56.152,57.129,0
1578178704.239,13.184,34.180,15.137,52.246,18.066,0
1578178704.243,25.879,38.574,9.766,41.504,41.504,0
1578178704.246,11.719,38.574,15.625,55.664,49.805,0
1578178704.250,0.977,38.574,29.297,61.523,-12.207,0
1578178704.254,2.441,34.180,27.832,48.828,-48.828,0
1578178704.258,14.648,26.855,27.832,55.176,18.066,0
1578178704.262,9.766,22.949,17.578,53.711,4.883,0
1578178704.264,-26.855,26.855,34.180,48.828,-29.785,0
1578178704.268,-20.996,33.203,47.363,62.012,6.836,0
1578178704.272,25.391,38.574,26.367,65.918,67.383,0
1578178704.276,12.207,35.156,17.578,43.457,60.059,0
1578178704.280,-36.133,27.344,26.855,43.945,27.832,0
1578178704.284,-15.137,21.973,20.508,59.082,-21.973,0
1578178704.288,20.508,20.020,2.441,53.223,13.184,0
1578178704.291,7.324,19.531,-8.301,45.410,115.234,0
1578178704.295,-1.953,26.367,14.160,45.898,103.027,0
1578178704.299,-7.812,34.180,19.531,39.062,1.465,0
1578178704.303,0.488,34.668,4.883,40.527,-18.555,0
1578178704.307,31.250,41.504,10.254,48.828,68.359,0
1578178704.309,29.297,43.457,15.137,52.246,90.332,0
1578178704.313,3.418,37.598,15.137,55.176,1.465,0
1578178704.317,-1.953,31.738,11.230,52.734,7.812,0
1578178704.321,18.555,29.785,0.000,48.340,60.547,0
1578178704.325,20.996,20.996,0.000,64.941,-16.113,0
1578178704.329,-16.113,20.508,12.207,66.895,17.578,0
1578178704.333,-14.160,20.508,-6.836,46.875,50.293,0
1578178704.336,21.484,19.043,-8.789,42.480,20.508,0
1578178704.340,20.020,25.879,20.508,40.039,28.320,0
1578178704.344,11.230,22.461,19.043,35.645,30.273,0
1578178704.348,3.418,22.461,20.996,48.340,59.570,0
1578178704.352,8.301,26.367,23.926,58.105,83.984,0
1578178704.354,24.414,20.996,26.367,44.922,150.879,0
1578178704.358,6.348,19.531,17.090,48.828,110.840,0
1578178704.362,-10.742,26.367,19.043,60.547,58.105,0
1578178704.366,2.930,11.719,20.996,57.129,112.793,0
1578178704.370,31.738,0.000,3.418,58.105,58.594,0
1578178704.374,9.277,1.465,-5.371,54.199,39.551,0
1578178704.378,-29.297,5.859,0.000,43.945,58.105,0
1578178704.381,-19.531,17.578,28.320,51.758,-3.906,0
1578178704.385,15.625,13.672,23.926,54.199,-15.625,0
1578178704.389,8.301,8.789,-1.465,41.992,8.301,0
1578178704.393,-25.391,12.207,13.672,42.969,41.016,0
1578178704.397,-20.020,14.648,36.621,49.805,66.406,0
1578178704.414,4.883,22.461,30.762,56.152,76.172,0
1578178704.418,13.672,18.066,15.625,47.852,89.844,0
1578178704.422,-9.766,14.648,22.461,48.828,65.430,0
1578178704.426,-26.855,17.578,35.156,59.082,43.457,0
1578178704.430,-0.977,18.555,20.020,61.523,41.992,0
1578178704.434,30.762,30.273,7.812,60.547,71.777,0
1578178704.438,5.859,26.367,12.695,50.781,97.656,0
1578178704.441,-26.855,10.254,20.996,39.551,39.551,0
1578178704.445,-5.371,11.719,21.484,47.363,26.367,0
1578178704.449,29.785,10.742,-7.324,41.016,58.594,0
1578178704.453,29.297,18.555,-0.488,36.133,71.289,0
1578178704.457,-17.578,26.367,26.855,47.852,26.855,0
1578178704.459,-21.973,27.344,17.090,50.293,34.668,0
1578178704.463,27.344,27.344,9.766,54.688,38.086,0
1578178704.467,29.297,14.160,16.113,46.387,24.414,0
1578178704.471,-13.672,14.648,27.832,55.176,9.766,0
1578178704.475,-12.695,20.996,22.461,52.734,12.207,0
1578178704.479,17.090,10.254,0.000,33.203,7.324,0
1578178704.483,4.883,5.859,3.418,40.527,-16.113,0
1578178704.486,-15.137,4.395,20.020,44.434,17.578,0
1578178704.490,-13.672,8.301,6.348,41.504,-4.395,0
1578178704.494,1.953,10.254,-5.371,44.922,-3.906,0
1578178704.498,11.230,9.277,20.508,49.805,-2.441,0
1578178704.502,15.137,10.742,24.902,43.457,-33.691,0
1578178704.504,8.301,10.254,21.973,33.691,2.930,0
1578178704.508,22.949,11.230,20.996,48.828,-11.719,0
1578178704.512,26.855,14.648,21.484,50.293,22.461,0
1578178704.516,-1.953,18.066,20.508,41.504,58.594,0
1578178704.520,-1.465,22.461,21.973,55.176,31.738,0
1578178704.524,5.859,30.273,16.602,55.176,53.711,0
1578178704.528,20.996,28.809,21.973,57.617,99.121,0
1578178704.531,16.602,22.949,28.320,65.430,62.012,0
1578178704.535,-9.277,24.902,3.906,53.223,67.871,0
1578178704.539,2.441,26.367,9.766,42.480,110.352,0
1578178704.543,34.180,25.879,24.414,48.828,76.172,0
1578178704.547,21.484,21.484,6.836,52.246,22.949,0
1578178704.549,-3.906,26.367,8.789,53.223,41.992,0
1578178704.553,0.000,38.574,25.391,64.941,47.363,0
1578178704.557,10.254,32.227,29.297,63.965,15.625,0
1578178704.561,26.367,19.043,13.672,55.176,-0.488,0
1578178704.565,7.324,26.855,19.043,49.316,16.113,0
1578178704.569,-9.277,29.297,33.203,51.758,24.414,0
1578178704.573,22.949,29.785,25.391,52.246,-21.484,0
1578178704.576,44.922,31.250,6.348,61.523,-11.719,0
1578178704.580,26.855,24.902,-1.465,62.012,-11.719,0
1578178704.584,-13.184,29.785,39.062,60.547,-53.711,0
1578178704.588,-8.789,35.645,41.016,60.547,-4.395,0
1578178704.592,24.902,28.809,16.113,50.293,0.977,0
1578178704.594,27.832,19.531,26.367,45.898,-49.805,0
1578178704.598,-6.836,27.344,39.062,44.922,-63.965,0
1578178704.602,-6.348,31.738,43.945,57.617,0.977,0
1578178704.606,20.996,29.297,35.645,49.316,57.129,0
1578178704.610,30.273,40.527,14.648,43.457,39.551,0
1578178704.614,19.043,42.969,4.395,61.523,4.883,0
1578178704.618,-3.418,38.574,27.832,69.824,-29.785,0
1578178704.621,4.883,29.297,11.719,66.895,-8.789,0
1578178704.625,25.879,32.715,0.488,55.664,23.438,0
1578178704.629,11.230,41.504,33.203,50.781,39.551,0
1578178704.633,-4.883,39.551,36.133,62.500,17.090,0
1578178704.637,-0.488,36.133,28.809,67.383,-8.301,0
1578178704.639,15.625,34.668,25.879,58.594,24.902,0
1578178704.643,20.020,41.016,20.020,52.734,-23.926,0
1578178704.647,-2.930,45.410,9.766,50.781,-50.781,0
1578178704.651,-3.418,45.410,16.113,50.293,-20.508,0
1578178704.655,27.344,46.875,30.762,55.664,40.039,0
1578178704.659,22.461,38.086,22.949,48.828,29.785,0
1578178704.663,-9.277,31.250,26.367,49.316,64.941,0
1578178704.666,-8.789,40.527,27.832,53.223,118.164,0
1578178704.670,16.113,43.945,43.945,55.664,-21.973,0
1578178704.674,21.973,38.574,49.805,60.059,-16.113,0
1578178704.678,6.348,31.250,32.227,57.129,102.539,0
1578178704.682,0.000,30.762,30.273,56.641,155.762,0
1578178704.684,11.230,38.086,33.203,55.664,114.746,0
1578178704.688,23.926,32.715,25.879,61.035,51.270,0
1578178704.692,15.625,26.367,19.531,51.270,55.664,0
1578178704.696,-7.324,27.344,25.391,40.039,63.965,0
1578178704.700,-17.090,26.855,24.902,51.758,81.055,0
1578178704.704,19.043,33.203,11.719,52.246,97.168,0
1578178704.708,31.250,32.715,-1.465,48.828,92.773,0
1578178704.711,2.930,44.922,21.973,63.477,20.996,0
1578178704.715,5.859,45.898,54.199,75.195,4.883,0
1578178704.719,42.480,26.855,36.621,68.848,38.574,0
1578178704.723,46.387,33.691,26.855,60.059,69.336,0
1578178704.727,-9.766,38.086,34.180,57.129,60.547,0
1578178704.729,-20.996,31.250,37.109,62.988,22.461,0
1578178704.733,14.160,39.551,25.391,69.824,33.203,0
1578178704.737,28.320,39.551,16.113,61.523,66.895,0
1578178704.741,32.715,32.715,14.648,55.664,69.336,0
1578178704.745,2.930,39.551,10.254,73.242,27.344,0
1578178704.749,-11.719,45.898,-0.977,66.406,94.238,0
1578178704.753,29.785,46.387,-16.113,47.852,128.906,0
1578178704.756,35.645,47.852,4.395,46.875,65.430,0
1578178704.760,13.184,35.645,17.090,47.363,49.316,0
1578178704.764,10.742,22.461,2.930,52.734,86.914,0
1578178704.768,15.137,28.809,-10.254,51.758,10.254,0
1578178704.772,10.254,30.762,-7.324,45.410,-62.988,0
1578178704.789,-6.836,36.133,11.719,54.688,10.742,0
1578178704.793,3.418,42.480,10.742,68.359,38.086,0
1578178704.797,26.367,37.598,-7.324,57.129,-25.879,0
1578178704.801,22.461,42.969,-3.418,62.012,-42.969,0
1578178704.805,10.742,46.387,-2.930,70.801,-10.742,0
1578178704.809,-7.812,32.715,-19.531,57.617,-62.988,0
1578178704.813,-3.418,26.367,-16.113,46.387,-29.297,0
1578178704.816,22.461,23.926,-6.836,43.945,27.344,0
1578178704.820,8.301,34.180,-4.395,52.246,-12.695,0
1578178704.824,-14.160,37.109,-14.648,54.199,31.738,0
1578178704.828,1.953,23.926,-9.766,52.246,42.969,0
1578178704.832,20.020,27.344,3.906,56.152,15.137,0
1578178704.834,10.742,29.785,-16.602,53.223,-21.484,0
1578178704.838,0.000,36.133,1.465,57.129,-16.602,0
1578178704.842,-6.836,40.527,20.020,58.594,7.324,0
1578178704.846,6.348,33.691,1.953,40.039,-23.438,0
1578178704.850,18.066,41.992,-2.930,41.016,20.020,0
1578178704.854,-14.648,52.246,-2.930,53.711,32.227,0
1578178704.858,-20.508,41.504,-2.930,50.781,-31.738,0
1578178704.861,18.066,32.227,0.977,40.527,-59.082,0
1578178704.865,27.344,31.250,-12.695,39.062,25.391,0
1578178704.869,1.953,33.203,-23.438,41.992,86.426,0
1578178704.873,-37.598,35.156,3.418,35.645,13.184,0
1578178704.877,-23.438,26.367,7.812,43.457,-24.902,0
1578178704.879,23.926,28.320,-5.859,50.781,-20.996,0
1578178704.883,19.043,29.297,0.977,53.223,-10.254,0
1578178704.887,-11.719,25.879,5.859,62.988,-35.645,0
1578178704.891,-2.441,33.203,2.930,57.129,13.184,0
1578178704.895,29.297,27.344,-3.418,50.781,31.250,0
1578178704.899,33.203,28.320,-10.742,48.828,4.395,0
1578178704.903,-2.930,40.039,7.812,58.594,22.949,0
1578178704.906,-26.367,30.762,21.484,51.270,67.383,0
1578178704.910,6.836,24.414,-7.324,31.738,84.961,0
1578178704.914,35.645,34.180,-0.488,40.527,64.941,0
1578178704.918,13.184,46.875,31.738,50.293,49.316,0
1578178704.922,-15.137,41.504,24.414,55.176,31.250,0
1578178704.924,-1.465,32.227,11.719,51.758,60.059,0
1578178704.928,9.766,35.645,17.090,55.664,107.422,0
1578178704.932,9.277,37.598,27.832,66.895,83.008,0
1578178704.936,-9.277,36.621,18.066,54.199,62.500,0
1578178704.940,2.930,43.457,9.277,42.969,65.430,0
1578178704.944,26.855,42.969,7.324,51.758,45.410,0
1578178704.948,16.113,50.293,21.973,51.270,104.980,0
1578178704.951,0.000,48.340,26.367,45.410,110.352,0
1578178704.955,3.906,30.273,11.719,49.316,97.168,0
1578178704.959,27.832,30.273,29.297,53.711,121.582,0
1578178704.963,22.949,41.016,30.762,54.199,111.816,0
1578178704.967,0.977,42.480,14.160,53.711,-0.977,0
1578178704.969,-6.836,31.738,22.949,46.875,1.953,2
1578178704.973,12.695,24.414,29.785,44.434,66.895,0
1578178704.977,31.250,28.320,25.391,47.852,72.754,0
1578178704.981,8.301,34.668,26.367,55.664,31.738,0
1578178704.985,-8.301,37.109,29.785,65.918,24.414,0
1578178704.989,19.531,20.508,20.996,63.965,49.805,0
1578178704.993,51.758,24.414,23.926,65.430,28.809,0
1578178704.996,35.156,35.645,17.578,62.012,46.387,0
1578178705.000,-9.766,32.715,26.855,39.551,72.266,0
1578178705.004,8.301,35.645,42.480,42.969,5.859,0
1578178705.008,22.461,31.738,23.926,54.688,29.297,0
1578178705.012,6.836,28.809,19.531,52.246,76.172,0
1578178705.014,-9.766,21.484,30.762,56.152,-3.418,0
1578178705.018,2.441,18.555,40.527,55.176,5.859,0
1578178705.022,41.504,26.855,17.090,49.316,23.438,0
1578178705.026,29.297,29.297,2.441,53.223,-33.203,0
1578178705.030,-9.277,23.438,24.902,51.758,4.395,0
1578178705.034,-11.230,17.578,28.320,54.199,5.371,0
1578178705.038,33.203,25.391,20.508,56.152,24.414,0
1578178705.041,36.621,21.973,7.812,41.992,109.375,0
1578178705.045,-0.488,18.555,30.273,48.340,38.574,0
1578178705.049,2.441,25.391,52.734,58.105,9.766,0
1578178705.053,16.602,28.809,33.203,58.594,57.129,0
1578178705.057,36.133,27.832,25.391,59.570,62.500,0
1578178705.059,18.066,22.461,26.367,59.082,40.527,0
1578178705.063,-6.836,22.949,27.832,68.359,23.438,0
1578178705.067,8.301,34.180,25.391,60.059,48.340,0
1578178705.071,16.113,29.785,12.207,55.176,55.176,0
1578178705.075,16.602,16.113,13.184,66.406,64.453,0
1578178705.079,1.953,24.902,10.742,69.336,60.547,0
1578178705.083,0.488,17.578,-5.859,53.711,46.875,0
1578178705.086,36.621,15.625,3.418,52.734,76.660,0
1578178705.090,31.738,25.879,25.391,62.012,49.316,0
1578178705.094,16.602,22.949,21.484,64.453,14.160,0
1578178705.098,19.043,23.926,14.648,65.430,36.621,0
1578178705.102,31.738,29.785,7.812,63.477,35.156,0
1578178705.104,32.227,26.855,9.766,62.988,-17.090,0
1578178705.108,4.395,19.531,16.602,57.617,-41.016,0
1578178705.112,-3.906,19.531,23.438,65.430,-52.246,0
1578178705.116,18.555,17.578,25.391,78.125,-43.457,0
1578178705.120,34.180,18.066,19.531,68.848,-62.988,0
1578178705.124,33.203,24.902,9.766,62.500,-51.270,0
1578178705.128,8.789,27.344,6.348,66.406,-20.996,0
1578178705.131,4.395,36.133,36.621,68.848,-16.602,0
1578178705.135,41.504,28.320,30.762,66.895,-20.508,0
1578178705.139,33.691,17.578,1.465,54.199,-53.223,0
1578178705.143,-12.207,17.090,9.766,56.641,-26.855,0
1578178705.147,-2.441,27.344,11.719,64.941,-43.945,0
1578178705.164,42.969,33.203,0.977,67.871,-72.754,0
1578178705.168,37.109,22.461,6.836,67.383,-33.203,0
1578178705.172,0.488,31.250,7.324,67.383,24.902,0
1578178705.176,7.324,41.992,12.207,72.754,62.988,0
1578178705.180,23.926,35.156,5.859,83.496,32.227,0
1578178705.184,34.668,30.273,-12.695,75.195,9.277,0
1578178705.188,25.879,31.738,-3.906,55.176,-7.324,0
1578178705.191,-1.465,28.320,20.020,51.758,3.906,0
1578178705.195,13.672,32.715,20.020,53.223,25.391,0
1578178705.199,29.297,40.527,-3.418,50.781,71.289,0
1578178705.203,24.902,48.340,5.859,51.758,52.246,0
1578178705.207,3.906,48.340,25.879,52.246,-21.484,0
1578178705.209,1.953,37.109,14.160,53.711,-24.902,0
1578178705.213,15.625,29.785,-0.977,48.828,49.805,0
1578178705.217,10.742,31.250,1.953,39.551,4.883,0
1578178705.221,1.953,28.809,18.555,44.434,-27.832,0
1578178705.225,-2.930,32.715,24.902,48.340,89.355,0
1578178705.229,6.836,40.039,5.859,51.270,96.191,0
1578178705.233,17.578,41.016,9.766,51.270,53.711,0
1578178705.236,-2.930,41.016,26.367,54.688,32.715,0
1578178705.240,-20.020,44.434,22.461,62.500,95.703,0
1578178705.244,3.418,40.527,-1.953,53.711,120.117,0
1578178705.248,40.039,34.668,6.836,49.316,50.293,0
1578178705.252,22.461,28.809,21.973,45.410,43.457,0
1578178705.254,-18.066,19.531,13.184,41.504,74.219,0
1578178705.258,1.465,16.602,7.324,46.387,55.176,0
1578178705.262,14.648,18.555,0.977,37.598,22.461,0
1578178705.266,-10.254,26.367,-1.953,42.969,57.129,0
1578178705.270,-32.227,24.414,3.906,50.781,79.590,0
1578178705.274,-25.391,17.090,-5.859,43.945,66.406,0
1578178705.278,5.859,20.508,-7.324,41.992,59.570,0
1578178705.281,13.184,18.555,6.348,43.945,63.965,0
1578178705.285,-11.719,18.066,-14.160,39.551,66.406,0
1578178705.289,5.371,18.066,-8.789,33.691,49.805,0
1578178705.293,15.137,14.160,12.207,31.250,32.227,0
1578178705.297,-6.836,20.508,-10.742,30.273,9.277,0
1578178705.299,-20.996,30.762,-12.695,40.039,27.344,0
1578178705.303,-39.062,29.297,7.812,39.551,99.121,0
1578178705.307,-5.371,26.367,8.301,40.039,20.996,0
1578178705.311,24.902,21.973,-6.836,52.246,-88.867,0
1578178705.315,-5.859,26.855,1.953,45.898,2.930,0
1578178705.319,-32.715,26.367,7.812,28.320,61.035,0
1578178705.323,-12.695,22.461,14.160,36.621,-6.348,0
1578178705.326,18.066,21.973,10.742,46.387,-42.969,0
1578178705.330,19.043,20.996,-0.977,48.828,6.836,0
1578178705.334,-5.859,33.203,21.484,60.547,-25.879,0
1578178705.338,-17.090,38.086,26.367,41.992,6.348,0
1578178705.342,13.184,29.785,11.230,38.086,64.941,0
1578178705.344,14.160,27.344,8.301,48.828,52.246,0
1578178705.348,-16.113,28.809,15.137,53.223,30.273,0
1578178705.352,-13.672,23.438,17.578,60.059,-32.715,0
1578178705.356,-2.930,13.672,10.742,49.805,-4.395,0
1578178705.360,10.254,20.996,15.137,57.129,73.242,0
1578178705.364,1.953,31.250,24.902,62.500,84.961,0
1578178705.368,-2.441,31.250,36.621,52.734,118.164,0
1578178705.371,11.230,24.414,11.719,44.922,85.938,0
1578178705.375,15.625,26.855,7.324,49.316,50.293,0
1578178705.379,0.488,35.645,32.715,55.664,-16.113,0
1578178705.383,-16.602,27.832,29.785,47.852,-31.250,0
1578178705.387,-8.301,23.438,20.020,45.410,-42.480,0
1578178705.389,13.184,27.832,16.602,47.363,-33.691,0
1578178705.393,12.207,25.391,16.602,54.199,12.695,0
1578178705.397,6.836,26.855,12.207,56.641,2.441,0
1578178705.401,8.789,28.320,19.043,54.688,-34.180,0
1578178705.405,21.484,27.344,17.578,51.758,-58.594,0
1578178705.409,26.855,25.879,3.906,60.059,-35.156,0
1578178705.413,-11.230,22.949,4.395,58.105,-15.137,0
1578178705.416,-18.066,20.996,10.254,36.133,51.270,0
1578178705.420,7.324,16.602,26.855,36.621,26.855,0
1578178705.424,26.367,21.484,22.461,56.152,-57.129,0
1578178705.428,19.043,25.879,15.137,57.129,-43.457,0
1578178705.432,9.766,31.250,28.320,54.199,-8.301,0
1578178705.434,33.691,33.203,20.508,50.781,-21.973,0
1578178705.438,48.828,30.762,-3.418,57.129,-9.766,0
1578178705.442,13.672,29.785,-9.766,62.500,14.648,0
1578178705.446,-14.648,28.809,2.441,62.012,-8.301,0
1578178705.450,-6.836,28.809,1.953,60.547,-0.977,0
1578178705.454,9.277,25.391,-10.254,55.664,83.496,0
1578178705.458,24.902,34.668,-18.066,58.105,140.625,0
1578178705.461,19.531,34.180,-9.277,55.176,91.797,0
1578178705.465,-2.441,27.344,17.578,57.129,52.246,0
1578178705.469,9.277,32.227,-3.418,59.082,22.949,0
1578178705.473,42.969,28.320,-27.832,51.270,33.691,0
1578178705.477,26.367,28.809,-12.695,48.828,55.664,0
1578178705.479,-11.719,35.156,4.883,52.734,57.129,0
1578178705.483,0.977,26.855,-1.465,53.711,79.590,0
1578178705.487,29.297,24.414,-8.301,50.781,51.758,0
1578178705.491,0.977,29.785,8.301,49.805,30.762,0
1578178705.495,-26.855,33.691,20.020,57.129,36.621,0
1578178705.499,3.418,23.926,5.859,59.570,58.594,0
1578178705.503,20.508,13.672,-6.348,45.410,85.449,0
1578178705.506,8.789,25.391,30.762,46.387,101.074,0
1578178705.510,-2.930,31.738,48.340,54.688,26.855,0
1578178705.514,-2.441,19.043,25.391,56.152,-25.879,0
1578178705.518,26.855,12.207,17.578,59.570,13.672,0
1578178705.522,27.344,18.555,32.227,66.406,69.824,0
1578178705.539,0.977,23.926,35.645,61.035,32.715,0
1578178705.543,-5.371,19.043,21.973,52.246,1.953,0
1578178705.547,-1.953,14.648,16.113,51.270,15.625,0
1578178705.551,20.020,27.344,17.090,55.176,-20.508,0
1578178705.555,-0.488,26.367,21.973,58.594,11.230,0
1578178705.559,-14.648,21.973,4.395,45.410,71.289,0
1578178705.563,20.508,31.738,2.930,47.852,47.363,0
1578178705.566,39.551,28.320,23.926,60.059,14.160,0
1578178705.570,8.789,19.043,17.578,56.152,51.270,0
1578178705.574,-32.227,24.414,15.625,64.453,32.227,0
1578178705.578,-13.184,27.344,20.508,64.453,59.082,0
1578178705.582,20.508,27.344,16.113,55.664,81.543,0
1578178705.584,27.832,18.555,8.301,46.875,73.730,0
1578178705.588,-3.418,19.531,18.066,52.246,83.008,0
1578178705.592,-28.809,25.879,26.367,54.199,35.645,0
1578178705.596,15.625,18.066,18.066,49.805,34.668,0
1578178705.600,37.598,21.484,8.301,57.129,32.715,0
1578178705.604,7.324,32.227,15.137,59.570,34.180,0
1578178705.608,1.953,38.574,28.809,53.223,6.836,0
1578178705.611,16.113,33.691,29.297,53.711,49.316,0
1578178705.615,29.297,33.203,14.160,56.641,101.074,0
1578178705.619,16.602,37.109,7.324,60.547,62.500,0
1578178705.623,-17.578,34.668,28.809,61.523,47.363,0
1578178705.627,-6.836,20.996,27.344,52.246,41.016,0
1578178705.629,30.762,13.672,14.160,48.828,55.664,0
1578178705.633,35.645,30.273,18.066,58.105,78.125,0
1578178705.637,25.391,32.715,15.625,62.500,-12.695,0
1578178705.641,12.695,22.461,12.695,49.805,-60.059,0
1578178705.645,10.742,24.902,5.859,35.645,-7.812,0
1578178705.649,4.883,22.461,3.418,33.203,74.707,0
1578178705.653,-22.949,22.461,20.996,46.875,27.344,0
1578178705.656,-11.230,21.484,39.062,59.082,6.348,0
1578178705.660,23.926,16.602,17.578,52.246,76.660,0
1578178705.664,26.855,12.695,11.719,29.785,77.637,0
1578178705.668,-12.695,8.789,38.086,33.691,98.145,0
1578178705.672,-33.691,10.742,25.879,51.270,0.488,0
1578178705.674,5.859,25.391,17.578,41.992,-9.766,0
1578178705.678,22.461,26.855,18.555,34.180,12.695,0
1578178705.682,4.395,18.066,21.484,44.922,-70.801,0
1578178705.686,0.000,24.414,25.879,59.570,-34.180,0
1578178705.690,9.277,22.949,23.438,74.219,-15.137,0
1578178705.694,6.348,17.578,15.625,64.453,-70.312,0
1578178705.698,11.719,16.602,30.273,60.547,-47.852,0
1578178705.701,1.953,18.555,37.598,66.406,-13.672,0
1578178705.705,-3.418,23.438,10.742,48.340,-33.203,0
1578178705.709,34.180,32.227,18.066,50.293,-33.691,0
1578178705.713,42.969,29.785,19.531,55.176,-17.090,0
1578178705.717,0.488,26.855,13.184,45.410,48.340,0
1578178705.719,-16.113,32.227,19.043,55.176,31.250,0
1578178705.723,11.230,24.414,16.602,63.477,-36.621,0
1578178705.727,24.902,25.879,11.230,52.734,23.926,0
1578178705.731,9.766,34.180,5.371,47.363,62.012,0
1578178705.735,-19.531,18.555,5.859,52.734,-13.672,0
1578178705.739,0.977,8.301,3.418,47.852,6.348,0
1578178705.743,39.062,18.555,7.812,54.688,43.457,0
1578178705.746,0.000,15.137,-4.883,62.012,19.043,0
1578178705.750,-37.109,9.766,3.418,48.828,41.992,0
1578178705.754,-13.672,15.137,25.879,50.781,-7.812,0
1578178705.758,12.207,12.695,5.371,56.641,-42.480,0
1578178705.762,8.301,6.836,0.977,64.453,-64.453,0
1578178705.764,-10.742,8.301,19.531,51.758,-2.441,0
1578178705.768,3.906,16.113,21.973,40.039,82.031,0
1578178705.772,25.879,20.020,1.953,39.062,59.570,0
1578178705.776,25.879,20.020,8.301,45.410,44.434,0
1578178705.780,8.789,22.461,31.738,61.035,83.008,0
1578178705.784,-11.230,16.113,33.691,59.082,105.469,2
1578178705.788,9.766,16.113,17.578,43.945,80.566,0
1578178705.791,34.180,21.484,6.348,51.758,104.492,0
1578178705.795,5.859,20.020,33.691,55.176,36.133,0
1578178705.799,-33.203,27.832,44.922,46.875,32.715,0
1578178705.803,-8.789,24.414,30.273,50.293,89.844,0
1578178705.807,19.531,17.578,22.461,52.246,106.445,0
1578178705.809,12.695,22.949,21.484,53.223,48.828,0
1578178705.813,1.953,20.996,23.926,52.246,-22.949,0
1578178705.817,8.301,21.484,24.414,58.105,-14.160,0
1578178705.821,22.949,23.926,31.738,64.941,16.113,0
1578178705.825,9.277,28.809,38.086,58.594,8.301,0
1578178705.829,-10.742,30.762,43.945,61.035,70.312,0
1578178705.833,-3.418,17.090,20.996,54.199,53.711,0
1578178705.836,20.996,16.602,23.926,45.898,41.992,0
1578178705.840,24.902,25.879,47.852,49.316,72.754,0
1578178705.844,5.371,23.926,37.109,48.828,68.359,0
1578178705.848,-3.906,25.391,38.574,55.176,57.129,0
1578178705.852,16.602,32.227,36.621,62.988,11.719,0
1578178705.854,34.668,34.668,31.250,62.988,-29.785,0
1578178705.858,2.441,35.156,39.062,59.082,7.812,0
1578178705.862,-24.902,32.227,32.715,46.875,67.383,0
1578178705.866,-5.859,15.625,23.438,53.711,29.785,0
1578178705.870,42.969,15.625,19.531,61.523,-8.789,0
1578178705.874,23.926,20.508,0.000,53.711,2.930,0
1578178705.878,-19.531,16.602,3.418,42.480,102.539,0
1578178705.881,8.789,17.090,26.367,37.109,99.121,0
1578178705.885,11.719,13.672,18.555,45.410,62.988,0
1578178705.889,6.348,18.555,10.742,46.875,29.297,0
1578178705.893,0.000,25.391,22.949,57.617,7.812,0
1578178705.897,-21.484,20.508,27.344,57.129,45.898,0
1578178705.914,-0.977,13.672,10.742,52.246,27.832,0
1578178705.918,16.602,21.973,0.977,63.965,89.355,0
1578178705.922,-4.883,26.855,10.742,58.594,108.398,0
1578178705.926,-10.742,20.996,17.578,44.434,46.387,0
1578178705.930,24.414,14.648,18.555,59.082,13.184,0
1578178705.934,54.199,8.301,0.488,59.082,40.527,0
1578178705.938,21.484,6.836,11.719,41.016,95.215,0
1578178705.941,-13.184,19.043,38.086,47.363,50.781,0
1578178705.945,5.371,20.020,24.902,55.664,52.734,0
1578178705.949,41.016,18.555,11.230,48.340,52.734,0
1578178705.953,23.926,27.344,9.277,47.363,0.488,0
1578178705.957,-16.113,22.461,13.672,62.988,0.977,0
1578178705.959,-11.230,14.648,10.254,55.664,16.602,0
1578178705.963,21.973,12.695,4.395,44.922,42.480,0
1578178705.967,26.855,18.555,7.324,48.828,12.207,0
1578178705.971,-3.906,20.996,12.695,59.570,-9.766,0
1578178705.975,-12.207,17.090,5.859,64.941,41.504,0
1578178705.979,-2.930,16.602,-6.348,47.363,32.227,0
1578178705.983,6.348,19.043,5.371,37.598,30.273,0
1578178705.986,11.719,15.137,18.555,45.898,22.949,0
1578178705.990,0.488,14.160,0.000,50.781,41.992,0
1578178705.994,20.508,24.414,-16.602,52.734,52.734,0
1578178705.998,57.129,34.668,8.301,56.641,6.836,0
1578178706.002,43.945,21.973,19.531,67.383,-23.926,0
1578178706.004,-9.277,7.324,18.555,61.035,-14.160,0
1578178706.008,-5.371,20.508,24.414,55.176,52.734,0
1578178706.012,24.414,34.180,12.695,64.453,81.543,0
1578178706.016,0.000,31.738,8.789,64.941,42.969,0
1578178706.020,-14.648,29.785,28.320,62.500,59.570,0
1578178706.024,-6.348,35.156,15.137,49.316,75.195,0
1578178706.028,9.277,28.320,3.418,42.969,34.180,0
1578178706.031,21.484,22.461,15.137,48.340,47.363,0
1578178706.035,16.602,30.762,0.977,56.641,52.246,0
1578178706.039,0.977,21.973,10.742,53.711,119.629,0
1578178706.043,7.324,12.695,23.438,43.945,83.984,0
1578178706.047,23.438,12.207,9.766,52.734,31.738,0
1578178706.049,11.719,18.555,11.719,57.129,-12.207,0
1578178706.053,9.277,25.391,22.461,55.664,12.695,0
1578178706.057,23.438,21.973,13.184,50.293,51.270,0
1578178706.061,32.227,23.438,1.953,55.664,-3.418,0
1578178706.065,6.836,16.602,10.742,60.547,30.762,0
1578178706.069,-21.484,15.625,13.672,63.477,80.078,0
1578178706.073,-9.277,22.461,9.766,69.336,90.332,0
1578178706.076,27.344,12.695,-9.766,60.059,52.246,0
1578178706.080,16.602,9.766,-7.324,44.434,6.348,0
1578178706.084,-14.648,21.484,37.109,47.852,35.156,0
1578178706.088,1.465,24.414,37.109,74.707,-7.812,0
1578178706.092,20.020,32.715,20.508,70.801,-36.621,0
1578178706.094,15.137,20.996,19.043,57.617,18.066,0
1578178706.098,4.883,6.348,26.367,52.734,2.441,0
1578178706.102,-6.348,2.930,20.508,41.992,-69.336,0
1578178706.106,2.930,-3.906,6.836,47.363,-78.125,0
1578178706.110,21.973,6.836,8.301,53.223,-68.848,0
1578178706.114,9.766,13.184,8.301,53.711,-108.398,0
1578178706.118,-7.324,5.859,29.785,51.270,-52.246,0
1578178706.121,8.789,-1.953,19.531,57.617,38.574,0
1578178706.125,27.832,8.301,3.418,68.848,14.160,0
1578178706.129,20.996,13.184,31.250,62.012,-42.480,0
1578178706.133,-3.906,14.648,32.227,56.641,-19.531,0
1578178706.137,-17.090,13.672,16.602,44.434,52.734,0
1578178706.139,18.555,13.672,10.254,41.992,42.480,0
1578178706.143,21.973,24.902,13.672,60.059,49.316,0
1578178706.147,-21.973,25.391,7.812,62.012,33.691,0
1578178706.151,-14.648,20.508,2.930,58.105,18.066,0
1578178706.155,39.551,22.949,-0.488,53.223,3.906,0
1578178706.159,33.203,22.461,-4.883,57.129,-20.020,0
1578178706.163,-14.648,23.926,0.488,45.898,27.344,0
1578178706.166,-13.672,22.949,6.348,36.133,112.793,0
1578178706.170,26.367,22.461,25.391,41.992,54.199,0
1578178706.174,33.691,18.555,20.996,40.527,20.996,0
1578178706.178,-5.859,18.555,15.137,46.875,75.195,0
1578178706.182,-19.531,27.344,20.508,54.688,42.969,0
1578178706.184,6.348,25.879,25.879,45.898,-14.160,0
1578178706.188,33.691,27.344,23.438,49.805,-58.105,0
1578178706.192,3.906,29.297,19.531,46.387,-20.020,0
1578178706.196,-37.598,24.414,31.738,35.645,22.949,0
1578178706.200,-17.578,24.414,32.715,43.945,30.762,0
1578178706.204,21.484,20.508,29.297,51.758,26.367,0
1578178706.208,20.996,9.277,14.648,50.781,33.203,0
1578178706.211,-10.742,9.766,14.160,47.363,53.223,0
1578178706.215,1.465,21.484,40.527,57.129,48.340,0
1578178706.219,41.992,21.484,24.902,57.617,33.203,0
1578178706.223,30.273,25.879,15.137,46.875,56.641,0
1578178706.227,1.953,34.668,23.438,41.992,8.301,0
1578178706.229,-7.812,39.551,28.809,54.199,10.254,0
1578178706.233,-3.418,28.320,11.719,51.758,77.148,0
1578178706.237,23.438,20.508,0.977,53.223,77.637,0
1578178706.241,34.668,32.715,17.578,64.941,33.203,0
1578178706.245,9.766,28.320,20.020,64.453,37.598,0
1578178706.249,1.953,22.461,-1.465,66.895,25.879,0
1578178706.253,32.227,29.785,-17.578,73.730,-9.766,0
1578178706.256,38.574,38.086,8.789,57.129,-1.465,0
1578178706.260,-7.324,41.992,26.855,37.109,5.859,0
1578178706.264,-14.648,31.250,10.742,40.039,3.418,0
1578178706.268,11.230,20.020,6.836,48.340,8.789,0
1578178706.272,21.484,30.273,12.207,55.664,-41.992,0
1578178706.289,-8.301,39.551,14.648,58.105,-50.781,0
1578178706.293,-21.484,22.949,4.883,44.434,-21.484,0
1578178706.297,24.902,7.812,-6.836,49.805,-94.727,0
1578178706.301,41.504,12.207,3.906,63.965,-100.586,0
1578178706.305,25.879,20.996,17.578,55.664,-4.395,0
1578178706.309,2.930,20.508,2.441,43.945,30.273,0
1578178706.313,-7.812,11.230,0.977,45.898,25.391,0
1578178706.316,11.230,15.625,24.902,63.965,43.457,0
1578178706.320,0.977,17.090,11.719,50.293,-9.766,0
1578178706.324,-24.902,11.719,3.418,45.898,11.230,0
1578178706.328,-0.488,19.531,24.902,58.105,91.797,0
1578178706.332,24.902,20.508,20.020,55.176,44.434,0
1578178706.334,15.625,17.090,-1.465,55.664,-41.016,0
1578178706.338,-3.418,24.414,4.395,51.270,-1.953,0
1578178706.342,5.859,24.414,12.695,41.016,-0.488,0
1578178706.346,35.156,11.230,10.742,46.875,-22.461,0
1578178706.350,30.762,7.324,5.371,53.711,16.113,0
1578178706.354,-4.883,17.090,-0.488,69.336,-34.180,0
1578178706.358,-21.973,21.973,18.066,64.941,-2.441,0
1578178706.361,7.324,16.113,25.879,40.527,71.777,0
1578178706.365,27.344,18.066,12.695,52.734,55.664,0
1578178706.369,22.949,23.438,9.277,65.918,15.137,0
1578178706.373,4.395,19.043,29.297,53.223,-12.207,0
1578178706.377,0.488,20.508,27.344,45.410,14.160,0
1578178706.379,9.277,19.531,9.766,36.621,49.316,0
1578178706.383,0.000,18.555,13.184,42.969,98.633,0
1578178706.387,-19.531,21.484,17.578,54.688,20.020,0
1578178706.391,-4.395,22.461,13.184,58.105,-13.184,0
1578178706.395,23.438,16.113,5.371,64.453,27.344,0
1578178706.399,21.973,9.766,9.766,60.547,107.422,0
1578178706.403,3.906,19.043,27.832,61.035,129.395,0
1578178706.406,-6.836,21.484,31.738,76.172,83.496,0
1578178706.410,27.344,8.789,-2.441,57.617,57.617,0
1578178706.414,39.551,0.000,-0.488,39.551,50.781,0
1578178706.418,1.465,1.465,32.227,47.852,35.156,0
1578178706.422,-4.395,12.207,25.391,51.270,15.625,0
1578178706.424,1.465,18.066,20.020,53.223,68.359,0
1578178706.428,14.648,20.020,23.926,59.570,60.547,0
1578178706.432,3.906,19.043,29.785,63.965,32.715,0
1578178706.436,-11.719,20.996,32.227,51.270,55.176,0
1578178706.440,18.066,22.949,25.879,49.805,98.145,0
1578178706.444,26.367,20.020,20.020,54.199,77.148,0
1578178706.448,6.348,18.555,20.508,49.805,1.465,0
1578178706.451,-31.250,20.020,16.113,52.734,-5.859,0
1578178706.455,-19.043,23.438,19.531,51.758,-2.441,0
1578178706.459,17.578,26.367,27.344,52.246,-34.180,0
1578178706.463,32.715,22.949,19.531,62.500,-35.645,0
1578178706.467,17.090,22.949,3.906,54.199,-44.434,0
1578178706.469,1.465,24.902,16.113,44.922,-6.836,0
1578178706.473,19.043,26.855,30.273,48.828,-5.859,0
1578178706.477,15.137,18.066,8.789,46.387,-63.965,0
1578178706.481,-12.207,16.113,11.719,51.758,-55.176,0
1578178706.485,-27.832,24.902,28.809,54.199,32.227,0
1578178706.489,14.160,25.879,16.602,48.340,63.477,0
1578178706.493,34.180,25.879,15.137,40.527,67.871,0
1578178706.496,6.348,27.832,3.418,40.527,89.355,0
1578178706.500,-11.719,23.438,-7.812,40.039,-20.508,0
1578178706.504,3.906,18.555,13.672,45.410,-41.992,0
1578178706.508,32.715,20.508,7.324,51.270,17.090,0
1578178706.512,19.043,30.762,3.906,50.781,56.641,0
1578178706.514,-15.625,35.645,13.672,50.293,39.062,0
1578178706.518,-11.230,31.738,18.555,47.852,6.348,0
1578178706.522,31.738,30.273,4.395,48.828,8.301,0
1578178706.526,29.297,27.832,1.953,55.176,5.859,0
1578178706.530,-9.277,21.973,13.184,61.035,-34.668,0
1578178706.534,-3.906,18.066,20.508,63.477,-30.762,0
1578178706.538,40.039,12.207,18.555,60.547,35.156,0
1578178706.541,34.668,9.277,-3.418,60.547,51.270,0
1578178706.545,-0.977,20.996,9.277,57.617,15.625,0
1578178706.549,-0.977,31.250,21.973,54.199,16.602,0
1578178706.553,21.973,25.391,3.906,53.223,50.781,0
1578178706.557,44.922,28.320,-2.441,54.199,5.371,0
1578178706.559,15.625,31.250,15.137,62.988,-5.371,0
1578178706.563,-17.578,23.926,16.602,63.477,9.766,0
1578178706.567,10.254,24.902,7.324,56.641,66.895,0
1578178706.571,30.273,31.250,12.695,56.152,126.953,0
1578178706.575,23.438,41.992,15.137,59.082,56.641,0
1578178706.579,15.137,50.781,16.113,62.500,-28.320,0
1578178706.583,-6.836,47.852,7.324,45.410,-24.414,0
1578178706.586,0.488,35.156,8.789,32.227,36.621,0
1578178706.590,16.602,34.668,30.762,45.898,18.555,0
1578178706.594,-4.883,31.738,21.484,55.176,51.270,0
1578178706.598,-8.301,24.414,21.973,54.199,79.102,0
1578178706.602,14.160,22.461,28.809,51.758,48.828,0
1578178706.604,28.320,30.762,15.137,58.105,25.879,0
1578178706.608,10.254,28.809,13.184,50.781,34.668,0
1578178706.612,-19.043,22.949,20.020,44.922,34.180,0
1578178706.616,-2.930,38.574,28.809,50.293,3.906,0
1578178706.620,36.621,37.109,22.461,59.082,-19.043,0
1578178706.624,8.789,16.113,7.324,42.969,21.973,0
1578178706.628,-25.879,14.160,1.465,24.902,78.125,0
1578178706.631,20.508,25.879,20.020,46.875,56.641,0
1578178706.635,37.598,30.273,21.484,56.152,19.531,0
1578178706.639,11.230,20.996,10.254,53.223,20.508,0
1578178706.643,-11.230,22.949,19.043,64.941,51.270,0
1578178706.647,-22.949,34.668,22.949,58.594,22.949,0
1578178706.664,8.789,37.598,3.418,56.152,15.625,0
1578178706.668,20.996,31.250,-12.207,64.453,42.969,0
1578178706.672,-1.465,27.344,2.930,64.453,-8.301,0
1578178706.676,-11.230,33.691,22.461,63.965,18.555,0
1578178706.680,9.766,27.344,11.719,61.523,68.359,0
1578178706.684,39.062,18.555,-15.625,57.617,69.824,1
1578178706.688,8.789,16.602,-1.465,59.082,51.758,0
1578178706.691,-23.926,18.066,25.879,43.945,-3.418,0
1578178706.695,2.930,23.926,15.625,42.480,-39.062,0
1578178706.699,17.578,21.973,7.324,48.828,-32.227,0
1578178706.703,-1.953,12.695,19.531,45.898,29.785,0
1578178706.707,-9.277,11.230,27.832,57.617,2.441,0
1578178706.709,-9.766,12.207,13.672,58.594,-61.035,0
1578178706.713,1.953,19.043,10.254,44.922,8.789,0
1578178706.717,26.367,27.344,15.137,48.340,6.836,0
1578178706.721,-4.883,25.391,15.137,66.406,-38.574,0
1578178706.725,-23.926,19.043,14.160,60.547,30.762,0
1578178706.729,0.000,28.320,2.930,44.434,-20.996,0
1578178706.733,17.578,24.902,2.930,39.551,-8.789,0
1578178706.736,-0.977,0.488,23.926,37.109,55.176,0
1578178706.740,-27.832,3.418,13.184,39.062,51.758,0
1578178706.744,-8.789,13.672,-7.324,31.250,97.168,0
1578178706.748,12.695,18.066,23.926,38.574,99.121,0
1578178706.752,18.066,20.996,33.691,62.012,17.090,0
1578178706.754,11.230,18.555,26.855,58.594,24.902,0
1578178706.758,20.508,17.578,26.367,51.270,47.363,0
1578178706.762,31.250,13.672,20.508,43.945,27.344,0
1578178706.766,20.996,5.371,18.555,45.410,35.156,0
1578178706.770,0.488,0.977,14.160,47.363,6.836,0
1578178706.774,0.488,20.020,13.672,48.340,8.301,0
1578178706.778,36.621,23.926,14.160,55.664,46.875,0
1578178706.781,34.668,26.367,12.207,67.871,1.953,0
1578178706.785,2.441,31.738,4.883,67.871,39.551,0
1578178706.789,4.883,31.738,15.137,55.176,41.016,0
1578178706.793,32.227,34.668,24.902,58.594,-39.551,0
1578178706.797,26.367,22.949,6.348,67.383,-1.953,0
1578178706.799,2.930,12.207,9.277,60.547,-48.340,0
1578178706.803,-6.836,15.137,30.273,48.340,-38.574,0
1578178706.807,26.855,20.020,36.133,57.129,101.562,0
1578178706.811,59.570,15.137,17.578,63.965,61.523,0
1578178706.815,17.090,14.648,14.648,54.199,-0.488,0
1578178706.819,-12.695,19.043,31.250,58.105,50.781,0
1578178706.823,5.371,20.508,33.691,64.941,60.547,0
1578178706.826,20.996,5.859,6.348,55.176,1.465,0
1578178706.830,9.766,3.906,-9.277,44.922,8.301,0
1578178706.834,-3.906,20.508,28.809,60.059,19.043,0
1578178706.838,14.648,21.973,28.809,72.266,-12.207,0
1578178706.842,37.109,18.555,9.766,57.617,14.648,0
1578178706.844,24.902,17.578,14.648,57.617,16.113,0
1578178706.848,-3.418,24.414,26.855,70.312,-34.180,0
1578178706.852,-5.859,22.461,29.785,62.988,7.324,0
1578178706.856,9.277,23.926,21.973,60.547,22.949,0
1578178706.860,36.133,17.578,17.578,60.547,-10.254,0
1578178706.864,26.367,13.184,16.602,61.035,9.766,0
1578178706.868,-17.578,20.508,31.250,67.383,5.859,0
1578178706.871,11.719,19.531,19.531,63.965,25.391,0
1578178706.875,48.340,21.973,11.230,57.617,49.805,0
1578178706.879,24.414,22.949,29.297,54.688,16.602,0
1578178706.883,-10.254,18.555,22.949,52.734,32.227,0
1578178706.887,0.000,15.625,16.602,54.688,75.684,0
1578178706.889,22.949,4.883,13.184,57.129,76.660,0
1578178706.893,28.320,15.137,14.160,67.871,38.574,0
1578178706.897,14.648,23.438,28.809,87.402,54.199,0
1578178706.901,28.320,18.555,31.250,70.312,71.289,0
1578178706.905,56.641,22.461,19.531,52.734,49.316,0
1578178706.909,34.180,21.973,6.348,62.500,75.195,0
1578178706.913,-13.672,23.926,1.465,69.336,73.730,0
1578178706.916,-18.555,19.043,-1.953,62.012,51.758,0
1578178706.920,19.043,14.160,15.625,55.176,31.250,0
1578178706.924,42.480,17.090,19.531,55.664,15.137,0
1578178706.928,36.621,16.602,6.836,52.246,50.781,0
1578178706.932,13.184,7.812,14.160,52.734,33.691,0
1578178706.934,6.348,7.812,18.555,58.594,24.902,0
1578178706.938,28.320,21.484,5.859,68.359,23.926,0
1578178706.942,14.648,25.879,4.395,65.430,-3.906,0
1578178706.946,-23.438,24.414,18.555,48.828,7.324,0
1578178706.950,-6.348,20.508,9.277,43.457,0.488,0
1578178706.954,24.414,14.160,2.930,53.711,72.754,0
1578178706.958,13.184,4.395,-8.789,52.246,83.984,0
1578178706.961,-5.371,5.371,3.906,49.805,58.105,0
1578178706.965,2.441,21.484,32.227,53.711,38.574,0
1578178706.969,20.020,20.508,4.395,45.898,-18.555,0
1578178706.973,30.273,13.672,-5.859,60.547,-9.766,0
1578178706.977,20.996,32.227,19.043,77.637,21.484,0
1578178706.979,-3.418,40.527,22.461,57.617,3.418,0
1578178706.983,15.625,25.879,3.418,44.434,35.645,0
1578178706.987,39.551,22.949,-5.859,52.246,52.734,0
1578178706.991,4.883,25.391,5.859,54.199,10.742,0
1578178706.995,-17.090,23.926,14.648,60.059,77.637,0
1578178706.999,12.207,28.320,-10.254,64.941,25.879,0
1578178707.003,23.926,30.762,-25.391,48.340,8.301,0
1578178707.006,32.227,37.598,8.301,48.828,51.758,0
1578178707.010,13.672,40.039,28.320,64.453,17.090,0
1578178707.014,8.301,27.832,20.020,64.453,-1.465,0
1578178707.018,23.926,24.414,15.137,58.594,72.266,0
1578178707.022,16.602,26.367,19.531,65.918,88.379,0
1578178707.039,6.348,27.344,31.738,70.312,49.805,0
1578178707.043,1.465,20.508,20.996,63.477,25.879,0
1578178707.047,19.531,17.578,12.207,76.660,-1.953,0
1578178707.051,18.555,20.996,24.902,65.918,48.340,0
1578178707.055,-11.719,27.344,28.809,45.898,91.797,0
1578178707.059,-14.160,32.715,24.414,61.035,91.309,0
1578178707.063,17.578,25.879,30.762,67.383,86.426,0
1578178707.066,26.367,16.602,37.109,62.988,109.375,0
1578178707.070,15.625,12.695,35.156,69.824,53.711,0
1578178707.074,-4.395,13.672,32.715,70.801,93.262,0
1578178707.078,14.160,15.137,36.133,56.152,136.719,0
1578178707.082,46.875,17.090,50.293,60.059,49.316,0
1578178707.084,26.367,12.695,38.574,55.664,0.977,0
1578178707.088,-12.695,14.160,27.344,57.129,-31.738,0
1578178707.092,-9.766,21.973,35.156,65.430,3.906,0
1578178707.096,13.184,20.508,27.832,56.152,27.832,0
1578178707.100,13.184,17.578,16.113,57.617,15.137,0
1578178707.104,-11.719,20.996,14.648,54.688,-34.668,0
1578178707.108,2.441,25.391,32.715,51.758,-14.648,0
1578178707.111,25.391,37.109,39.062,58.105,5.371,0
1578178707.115,15.137,38.086,9.277,63.965,-15.625,0
1578178707.119,-2.930,39.062,1.953,56.152,9.766,0
1578178707.123,0.488,43.457,37.109,48.340,-15.625,0
1578178707.127,18.066,45.898,37.598,53.223,-11.719,0
1578178707.129,36.621,48.340,18.555,54.199,-12.695,0
1578178707.133,19.531,32.715,15.625,58.105,-9.277,0
1578178707.137,-20.508,25.879,18.066,65.918,-46.875,0
1578178707.141,-5.371,32.227,31.738,64.453,4.883,0
1578178707.145,26.367,39.062,15.137,57.129,38.086,0
1578178707.149,23.438,31.738,-3.418,52.734,-8.301,0
1578178707.153,3.906,26.855,16.113,54.688,8.789,0
1578178707.156,8.301,20.996,31.738,60.547,-9.277,0
1578178707.160,32.715,10.254,3.418,58.105,-22.949,0
1578178707.164,39.551,19.531,10.254,58.105,8.301,0
1578178707.168,10.254,20.020,50.293,65.430,37.109,0
1578178707.172,12.207,4.395,36.621,60.059,56.152,0
1578178707.174,27.344,9.277,28.809,62.012,48.340,0
1578178707.178,26.855,24.902,27.344,75.684,13.672,0
1578178707.182,14.648,27.832,24.414,76.172,-43.457,0
1578178707.186,-8.301,18.555,32.715,56.641,40.039,0
1578178707.190,-2.441,16.602,23.438,54.688,95.703,0
1578178707.194,26.855,17.090,3.906,61.035,54.688,0
1578178707.198,29.297,15.137,10.742,54.199,48.828,0
1578178707.201,0.000,20.996,20.508,59.570,15.137,0
1578178707.205,-9.277,23.926,0.977,64.453,-3.418,0
1578178707.209,18.066,26.367,21.973,69.824,106.934,0
1578178707.213,15.625,24.414,21.484,59.570,102.051,0
1578178707.217,-18.066,24.414,6.836,53.223,41.016,0
1578178707.219,-11.719,28.809,18.555,64.941,48.340,0
1578178707.223,16.602,29.785,16.602,57.129,-7.812,0
1578178707.227,19.043,39.062,13.184,53.711,-11.719,0
1578178707.231,12.695,33.203,23.438,66.406,1.953,0
1578178707.235,1.465,22.461,21.973,62.988,-23.926,0
1578178707.239,1.953,37.598,4.395,55.176,-34.668,0
1578178707.243,12.695,32.227,8.301,47.852,-3.906,0
1578178707.246,15.137,27.344,4.395,42.969,31.250,0
1578178707.250,12.207,34.668,11.230,50.781,49.316,0
1578178707.254,-2.930,28.809,30.762,55.176,14.648,0
1578178707.258,5.371,31.250,15.625,56.641,-4.883,0
1578178707.262,-9.277,30.273,10.254,57.129,48.340,0
1578178707.264,-29.785,14.648,20.508,52.734,71.289,0
1578178707.268,3.418,18.555,23.926,51.758,33.691,0
1578178707.272,34.668,27.832,2.441,40.527,18.066,0
1578178707.276,24.902,28.320,-4.395,47.852,14.648,0
1578178707.280,-11.719,30.273,10.742,58.594,37.598,0
1578178707.284,-31.250,32.227,5.371,56.641,41.504,0
1578178707.288,10.742,31.738,-5.371,52.246,-23.438,0
1578178707.291,23.438,27.344,-8.789,41.016,37.109,0
1578178707.295,4.883,26.367,15.625,53.223,52.246,0
1578178707.299,-1.953,23.926,30.762,71.777,40.039,0
1578178707.303,0.000,17.090,8.789,68.359,130.371,0
1578178707.307,35.645,24.414,0.977,67.871,99.121,0
1578178707.309,38.086,35.156,20.020,72.754,102.539,0
1578178707.313,2.930,38.574,19.531,58.594,120.605,0
1578178707.317,8.789,39.551,3.418,50.781,77.637,0
1578178707.321,28.809,43.457,-6.348,67.383,37.598,0
1578178707.325,1.953,37.598,1.953,64.453,84.961,0
1578178707.329,-21.484,29.297,1.465,56.152,39.551,0
1578178707.333,-11.719,33.203,-5.859,54.199,26.855,0
1578178707.336,14.160,31.738,-1.953,47.852,92.285,0
1578178707.340,20.996,25.879,14.648,52.246,36.621,0
1578178707.344,21.484,23.926,23.926,58.105,25.879,0
1578178707.348,8.301,28.809,31.250,72.754,64.453,0
1578178707.352,-7.324,28.809,23.926,66.895,65.430,0
1578178707.355,15.625,26.855,15.137,53.711,44.434,0
1578178707.359,4.395,23.438,17.578,56.152,47.363,0
1578178707.363,-7.324,16.113,15.625,51.270,81.055,0
1578178707.367,1.465,19.531,13.672,46.875,34.668,0
1578178707.371,-0.977,28.320,12.695,54.199,1.465,0
1578178707.375,-5.371,33.691,-5.859,49.805,39.062,0
1578178707.379,-15.137,40.039,-9.277,42.480,92.285,0
1578178707.382,-19.531,41.504,15.137,40.527,58.105,0
1578178707.386,5.859,35.645,15.137,31.250,27.344,0
1578178707.390,3.418,38.086,1.465,34.180,32.715,0
1578178707.394,-3.418,40.527,11.230,31.738,14.648,0
1578178707.398,3.906,38.574,29.297,40.527,22.949,0
1578178707.414,4.395,29.785,20.996,50.293,58.594,0
1578178707.418,5.859,18.066,2.930,44.922,46.387,0
1578178707.422,-19.043,26.855,15.625,47.363,-36.621,0
1578178707.426,-16.602,40.039,33.691,59.082,-53.223,0
1578178707.430,20.508,39.062,25.391,52.246,-14.160,0
1578178707.434,16.602,35.645,-5.371,21.973,20.508,0
1578178707.438,-18.555,35.156,-8.301,31.738,-20.508,0
1578178707.441,-42.480,25.391,25.391,42.480,-63.477,0
1578178707.445,-19.531,26.367,31.250,41.992,-35.156,0
1578178707.449,26.855,29.785,14.160,53.223,-42.480,0
1578178707.453,23.438,19.531,22.949,54.199,4.883,0
1578178707.457,-8.789,11.230,32.715,50.781,-37.109,0
1578178707.459,-1.465,18.555,30.273,42.480,-62.500,0
1578178707.463,27.832,24.414,34.668,38.574,20.996,0
1578178707.467,3.418,15.137,43.945,48.828,24.414,0
1578178707.471,-26.367,15.137,43.457,51.270,9.766,0
1578178707.475,-10.254,16.113,41.016,53.711,25.879,0
1578178707.479,11.230,13.672,28.809,56.641,36.133,0
1578178707.483,14.160,14.648,28.809,55.176,29.297,0
1578178707.486,0.977,8.301,42.480,55.176,-5.859,0
1578178707.490,1.465,5.859,29.297,64.453,-27.832,0
1578178707.494,19.043,12.695,16.602,55.176,33.203,0
1578178707.498,37.598,28.320,41.992,55.664,54.688,0
1578178707.502,16.602,25.391,32.715,63.965,-33.203,0
1578178707.504,-10.254,13.184,25.879,54.688,-25.879,0
1578178707.508,9.277,17.578,37.598,51.758,-6.348,0
1578178707.512,28.809,17.090,20.020,48.828,-26.855,0
1578178707.516,21.484,11.230,15.625,57.129,-35.156,0
1578178707.520,-10.742,14.648,29.297,61.523,24.902,0
1578178707.524,-30.762,19.531,22.461,51.270,77.148,0
1578178707.528,8.789,22.461,20.508,41.016,81.055,0
1578178707.531,10.254,22.461,25.391,38.574,42.480,0
1578178707.535,-10.254,16.113,14.160,47.852,64.453,0
1578178707.539,1.465,14.648,30.762,56.641,107.910,0
1578178707.543,15.625,22.949,41.016,52.246,61.035,0
1578178707.547,30.762,20.508,11.719,51.758,106.934,0
1578178707.549,18.555,8.789,6.348,56.152,86.914,0
1578178707.553,-18.555,11.230,19.043,47.852,-7.812,0
1578178707.557,2.441,19.043,18.555,36.621,11.719,0
1578178707.561,29.785,24.902,6.836,32.715,-0.977,0
1578178707.565,13.184,31.250,16.602,43.945,22.461,0
1578178707.569,-7.324,28.320,25.879,54.688,35.156,0
1578178707.573,8.301,34.668,32.715,65.918,6.348,0
1578178707.576,42.969,33.691,26.855,64.941,-10.742,0
1578178707.580,29.785,22.461,15.137,49.316,51.270,0
1578178707.584,0.000,21.484,46.875,45.898,41.504,0
1578178707.588,-3.418,18.555,56.152,51.758,-50.293,0
1578178707.592,19.531,16.602,34.668,47.363,-10.742,1
1578178707.594,15.625,15.625,32.227,37.109,0.000,0
1578178707.598,-17.090,20.508,58.105,48.340,-16.602,0
1578178707.602,-12.695,28.809,59.082,53.711,6.836,0
1578178707.606,6.348,27.832,39.062,37.598,36.621,0
1578178707.610,15.625,19.043,36.133,38.086,20.020,0
1578178707.614,18.555,6.348,33.691,51.758,-8.301,0
1578178707.618,2.441,6.348,41.504,50.293,-36.621,0
1578178707.621,3.906,7.324,26.855,38.574,-7.324,0
1578178707.625,15.137,9.766,26.855,36.133,83.496,0
1578178707.629,7.812,14.160,60.059,52.734,124.023,0
1578178707.633,-8.789,14.160,54.688,53.711,104.980,0
1578178707.637,10.742,23.438,41.016,58.105,106.445,0
1578178707.639,53.711,22.461,33.203,63.965,79.102,0
1578178707.643,36.621,15.137,35.156,55.664,58.105,0
1578178707.647,-12.207,13.672,31.738,54.199,91.797,0
1578178707.651,-18.555,12.695,33.203,56.152,80.566,0
1578178707.655,2.930,12.207,31.250,45.410,63.965,0
1578178707.659,20.020,22.461,12.207,59.570,0.977,0
1578178707.663,10.742,34.180,15.137,69.336,-17.090,0
1578178707.666,-10.254,44.922,23.438,41.016,67.383,0
1578178707.670,13.184,47.363,38.086,43.457,-5.859,0
1578178707.674,27.832,28.320,33.691,54.199,-47.363,0
1578178707.678,6.836,15.625,16.602,45.898,-14.160,0
1578178707.682,6.836,23.926,29.785,54.199,-39.551,0
1578178707.684,21.484,31.250,28.320,61.035,-87.402,0
1578178707.688,35.156,30.762,16.602,57.617,-62.012,0
1578178707.692,13.184,28.320,13.672,60.059,-13.184,0
1578178707.696,-14.648,33.203,22.949,63.965,-14.648,0
1578178707.700,-5.859,41.016,27.832,59.082,-15.137,0
1578178707.704,19.531,43.457,17.578,64.453,31.738,0
1578178707.708,10.742,35.645,4.883,51.270,64.941,0
1578178707.711,-7.324,30.273,16.113,30.273,30.273,0
1578178707.715,3.906,34.668,41.992,48.340,14.160,0
1578178707.719,19.043,30.273,16.602,59.082,-6.836,0
1578178707.723,46.875,27.344,7.324,67.871,-39.551,0
1578178707.727,24.414,40.039,30.273,66.895,-30.273,0
1578178707.729,-28.809,34.180,34.180,46.875,-2.441,0
1578178707.733,-23.926,25.391,16.113,44.922,19.043,0
1578178707.737,4.883,25.391,3.906,38.086,66.895,0
1578178707.741,0.977,24.902,4.883,33.203,12.695,0
1578178707.745,-14.160,15.625,15.137,46.875,-5.371,0
1578178707.749,11.230,18.555,6.836,59.082,26.855,0
1578178707.753,41.992,27.344,-8.789,52.246,41.992,0
1578178707.756,1.465,26.367,16.113,44.922,39.551,0
1578178707.760,-33.203,37.598,37.598,62.500,-5.859,0
1578178707.764,-14.160,43.457,22.949,77.637,17.090,0
1578178707.768,34.668,41.504,16.602,63.965,10.742,0
1578178707.772,42.969,38.086,21.973,47.363,21.973,0
1578178707.789,-1.953,32.715,20.508,58.105,35.645,0
1578178707.793,7.324,34.180,22.949,66.895,31.250,0
1578178707.797,37.598,36.133,21.973,57.129,73.242,0
1578178707.801,16.602,31.250,26.855,59.082,88.867,0
1578178707.805,-4.883,27.832,36.621,69.824,62.012,0
1578178707.809,0.488,34.180,28.809,61.035,72.754,0
1578178707.813,20.508,40.039,24.414,57.617,102.539,0
1578178707.816,32.715,45.898,32.227,62.012,96.191,0
1578178707.820,16.602,40.527,30.273,61.523,40.527,0
1578178707.824,-1.953,33.203,16.602,59.570,42.969,0
1578178707.828,10.742,30.762,20.020,55.176,74.219,0
1578178707.832,36.621,30.762,38.086,55.176,61.035,0
1578178707.834,29.785,33.203,27.344,57.129,63.965,0
1578178707.838,-4.395,35.156,27.832,56.152,91.309,0
1578178707.842,-8.301,39.062,33.203,49.805,102.539,0
1578178707.846,19.043,37.598,16.113,49.805,18.066,0
1578178707.850,43.945,32.227,12.207,56.152,-38.086,0
1578178707.854,31.738,30.762,20.020,62.012,16.602,0
