timestamps,TP9,AF7,AF8,TP10,Right AUX,Marker0
1578179337.917,-5.371,21.484,44.922,51.758,34.668,0
1578179337.921,1.953,20.508,39.062,60.059,10.254,0
1578179337.925,8.301,20.020,39.551,54.199,-25.879,0
1578179337.929,11.719,21.484,43.457,41.504,22.949,0
1578179337.933,27.344,17.578,38.086,43.945,57.129,0
1578179337.937,31.738,15.137,28.809,43.457,25.391,0
1578179337.941,-0.488,19.043,30.273,61.523,-41.504,0
1578179337.944,-5.859,15.625,35.156,59.570,-11.719,0
1578179337.948,3.906,11.719,32.715,42.969,80.078,0
1578179337.952,11.719,12.695,26.855,41.992,44.922,0
1578179337.956,20.020,17.090,31.738,59.570,1.953,0
1578179337.960,7.324,20.020,40.039,73.242,15.137,0
1578179337.962,20.508,20.020,41.504,48.340,65.430,0
1578179337.966,17.090,21.973,37.109,56.152,60.547,0
1578179337.970,-23.438,21.973,31.738,73.242,-0.488,0
1578179337.974,-19.531,20.508,31.738,57.617,13.672,0
1578179337.978,24.414,18.066,36.621,45.898,86.426,0
1578179337.982,41.992,18.066,33.691,53.711,70.312,0
1578179337.986,4.883,12.695,31.250,58.594,16.602,0
1578179337.989,-10.742,14.160,36.133,58.105,-13.184,0
1578179337.993,15.625,20.020,32.227,49.805,12.695,0
1578179337.997,29.297,16.602,37.109,51.270,70.801,0
1578179338.001,13.184,15.625,40.527,55.664,30.762,0
1578179338.005,13.184,14.648,35.156,55.664,-35.156,0
1578179338.007,64.941,3.906,44.434,60.059,7.324,0
1578179338.011,20.996,11.230,50.781,54.199,60.547,0
1578179338.015,-37.109,21.484,51.758,48.828,8.789,0
1578179338.019,-16.602,16.602,53.711,52.734,-30.273,0
1578179338.023,9.277,21.484,52.734,53.223,0.488,0
1578179338.027,29.785,22.949,50.781,42.480,45.898,0
1578179338.031,31.250,22.949,51.270,38.086,61.523,0
1578179338.034,-3.418,25.879,41.504,47.363,-17.578,0
1578179338.038,-13.184,26.367,41.016,49.805,-26.367,0
1578179338.042,7.324,25.879,58.594,44.434,39.062,0
1578179338.046,23.438,27.344,63.965,48.340,58.594,0
1578179338.050,35.156,25.879,51.270,49.316,7.812,0
1578179338.051,15.137,22.949,43.945,65.918,-56.152,0
1578179338.055,13.672,20.508,51.758,60.547,-17.578,0
1578179338.059,23.926,14.648,48.340,42.969,34.180,0
1578179338.063,22.461,18.555,42.969,53.223,26.367,0
1578179338.067,14.648,17.090,41.016,57.129,-28.809,0
1578179338.071,12.695,13.672,38.574,44.434,-3.906,0
1578179338.075,22.461,20.508,48.828,29.785,80.566,0
1578179338.078,-3.906,20.020,43.945,30.762,80.078,0
1578179338.082,-32.227,19.531,37.109,40.039,-8.789,0
1578179338.086,-12.695,22.461,45.898,46.387,-20.508,0
1578179338.090,28.809,21.973,47.363,48.340,56.152,0
1578179338.094,32.715,20.996,46.875,51.758,71.777,0
1578179338.096,0.488,24.414,41.504,44.434,26.367,0
1578179338.100,18.066,27.832,41.992,50.293,5.371,0
1578179338.104,35.156,22.461,43.945,54.199,50.781,0
1578179338.108,8.301,16.113,37.598,81.543,102.051,0
1578179338.112,-5.859,20.508,32.227,73.242,46.875,0
1578179338.116,-11.230,20.996,33.203,27.832,-18.555,0
1578179338.120,3.906,17.090,34.668,35.645,-11.230,0
1578179338.123,39.062,18.066,32.227,39.551,43.945,0
1578179338.127,18.555,23.438,37.598,42.969,67.383,0
1578179338.131,-25.391,22.461,37.109,51.270,-5.859,0
1578179338.135,-5.371,19.531,31.738,56.641,-18.066,0
1578179338.139,11.230,22.461,35.645,59.570,43.945,0
1578179338.141,11.230,24.902,36.621,62.500,28.320,0
1578179338.145,11.230,26.855,27.344,57.617,-36.621,0
1578179338.149,0.977,26.855,21.973,61.523,-48.828,0
1578179338.153,22.949,27.344,27.832,62.988,38.574,0
1578179338.157,29.297,24.902,26.367,44.434,102.539,0
1578179338.161,-2.441,16.602,12.695,33.203,20.996,0
1578179338.165,-6.836,18.066,2.930,48.340,-54.199,0
1578179338.168,14.160,28.320,12.695,52.246,28.809,0
1578179338.172,14.160,27.832,24.902,31.738,94.727,0
1578179338.176,-0.488,16.602,20.996,36.621,48.828,0
1578179338.180,15.625,16.113,16.113,42.969,-13.184,1
1578179338.184,31.250,20.020,23.926,55.664,6.836,0
1578179338.187,9.277,15.625,32.715,73.242,74.219,0
1578179338.191,-2.930,18.555,27.832,69.336,53.711,0
1578179338.195,-7.324,19.531,22.461,63.965,1.465,0
1578179338.199,5.371,20.508,26.855,60.059,8.789,0
1578179338.203,41.504,25.391,31.250,49.805,72.266,0
1578179338.207,34.668,20.508,25.391,41.016,81.543,0
1578179338.211,-9.766,17.090,20.020,50.293,-28.809,0
1578179338.214,-15.137,16.602,36.133,62.988,-53.711,0
1578179338.218,7.812,19.531,49.805,58.594,38.574,0
1578179338.222,17.090,23.926,42.480,45.898,79.590,0
1578179338.226,32.715,24.902,31.250,43.945,9.277,0
1578179338.230,13.184,25.391,30.762,49.805,-52.246,0
1578179338.247,-10.742,24.414,37.598,49.805,9.277,0
1578179338.251,17.578,24.414,38.086,41.504,71.289,0
1578179338.255,2.930,20.508,37.598,54.199,32.715,0
1578179338.259,-17.090,20.020,36.133,60.547,-41.016,0
1578179338.263,-2.930,17.090,41.016,58.594,-14.648,0
1578179338.267,7.324,12.207,38.574,55.664,47.363,0
1578179338.271,6.836,16.113,38.086,39.062,50.781,0
1578179338.274,4.395,20.508,45.410,35.156,25.391,0
1578179338.278,15.625,21.484,40.039,39.551,-10.254,0
1578179338.282,7.324,18.066,41.504,53.223,34.180,0
1578179338.286,-14.160,18.555,41.992,70.801,58.594,0
1578179338.290,-24.414,21.973,37.109,65.918,10.254,0
1578179338.292,-12.695,21.484,31.738,45.410,-24.414,0
1578179338.296,35.156,21.973,32.227,28.320,-3.418,0
1578179338.300,21.484,27.344,40.527,41.504,75.195,0
1578179338.304,-4.395,28.809,40.527,63.477,38.086,0
1578179338.308,-3.418,23.438,33.691,56.641,-39.062,0
1578179338.312,16.602,24.414,28.320,52.734,4.395,0
1578179338.316,38.086,26.855,30.762,48.828,59.570,0
1578179338.319,-9.277,24.902,33.203,38.574,58.105,0
1578179338.323,-29.785,21.973,25.879,39.062,41.016,0
1578179338.327,-1.465,19.531,24.414,39.062,41.016,0
1578179338.331,6.836,18.066,38.086,53.711,103.027,0
1578179338.335,6.836,18.066,30.273,63.477,51.758,0
1578179338.337,11.719,18.555,18.555,66.895,-40.527,0
1578179338.341,14.160,24.902,21.484,69.336,13.672,0
1578179338.345,33.691,23.926,21.973,55.664,70.312,0
1578179338.349,39.062,20.020,15.625,50.293,34.668,0
1578179338.353,22.949,19.531,10.254,65.918,-15.137,0
1578179338.357,9.766,16.602,12.695,64.453,17.090,0
1578179338.361,1.953,10.742,18.555,48.340,50.293,0
1578179338.364,22.949,9.766,22.461,52.246,78.613,0
1578179338.368,11.719,18.066,10.742,53.223,77.148,0
1578179338.372,-3.418,19.531,11.719,49.805,20.020,0
1578179338.376,32.227,18.066,27.344,49.316,49.805,0
1578179338.380,40.039,17.090,25.391,62.988,101.562,0
1578179338.381,14.648,16.602,23.926,67.871,70.801,0
1578179338.385,12.207,12.695,24.414,70.312,12.695,0
1578179338.389,14.648,10.742,26.367,75.195,17.578,0
1578179338.393,9.277,17.578,24.414,55.664,80.566,0
1578179338.397,16.113,18.555,18.555,44.434,78.613,0
1578179338.401,5.859,16.602,12.695,50.781,9.277,0
1578179338.405,-2.930,15.137,13.184,48.340,0.977,0
1578179338.408,20.996,12.207,18.066,52.734,60.547,0
1578179338.412,11.719,15.625,14.648,37.109,56.641,0
1578179338.416,-21.484,9.277,18.066,44.434,-8.301,0
1578179338.420,-25.879,9.766,15.625,56.641,-41.992,0
1578179338.424,-4.883,22.949,13.672,29.297,-7.812,0
1578179338.426,11.230,21.484,17.578,27.832,60.547,0
1578179338.430,-7.812,15.625,8.301,36.621,17.578,0
1578179338.434,-6.836,15.625,2.441,40.527,-69.336,0
1578179338.438,13.184,12.695,17.578,42.480,-11.719,0
1578179338.442,-4.883,14.160,21.484,39.062,89.844,0
1578179338.446,-16.602,19.531,12.695,52.246,61.523,0
1578179338.450,-10.742,20.508,11.719,53.223,-14.648,0
1578179338.453,7.324,20.508,9.766,50.293,-34.668,0
1578179338.457,18.555,18.066,21.973,46.387,7.812,0
1578179338.461,8.301,13.672,32.227,45.410,30.273,0
1578179338.465,0.488,17.090,21.973,56.641,-24.902,0
1578179338.469,5.859,23.438,22.949,49.316,-46.387,0
1578179338.472,9.277,17.090,33.691,51.270,28.320,0
1578179338.476,-1.465,12.695,43.457,69.824,69.336,0
1578179338.480,-11.719,13.672,36.133,57.129,0.488,0
1578179338.484,1.465,13.672,27.832,30.762,-46.387,0
1578179338.488,12.695,19.043,32.227,41.016,7.812,0
1578179338.492,15.137,30.273,31.250,59.082,55.664,0
1578179338.496,5.371,29.785,25.391,54.688,24.414,0
1578179338.499,25.391,21.973,23.926,48.340,-44.434,0
1578179338.503,20.020,23.438,37.598,51.270,-9.277,0
1578179338.507,9.766,23.926,42.969,60.059,63.965,0
1578179338.511,15.625,22.461,33.691,57.129,48.828,0
1578179338.515,-20.508,20.020,27.344,51.758,-4.395,0
1578179338.517,-19.531,19.531,29.297,60.059,-6.836,0
1578179338.521,25.879,20.020,35.156,54.199,52.734,0
1578179338.525,42.969,15.625,32.227,40.527,68.848,0
1578179338.529,8.789,11.230,27.344,46.387,19.531,0
1578179338.533,-21.973,20.020,28.809,57.129,-20.020,0
1578179338.537,1.465,23.438,22.461,38.086,24.414,0
1578179338.541,19.043,16.602,11.230,54.688,41.992,0
1578179338.544,4.883,16.113,12.207,62.012,-26.855,0
1578179338.548,8.301,14.160,21.973,37.598,-42.969,0
1578179338.552,27.832,16.113,23.926,52.734,-3.906,0
1578179338.556,27.344,20.020,22.949,29.785,30.762,0
1578179338.560,7.324,19.043,21.973,17.578,31.250,0
1578179338.562,6.348,17.090,23.926,50.293,-17.578,0
1578179338.566,18.555,18.555,26.367,67.383,-17.090,0
1578179338.570,17.578,20.020,25.391,54.688,45.898,0
1578179338.574,18.555,20.020,25.391,55.176,36.621,0
1578179338.578,39.551,25.391,21.973,56.152,-7.324,0
1578179338.582,43.457,25.391,20.508,43.945,26.855,0
1578179338.586,13.672,19.531,25.879,45.898,53.223,0
1578179338.589,6.836,16.602,34.180,49.805,80.566,0
1578179338.593,4.395,21.484,28.320,56.641,15.625,0
1578179338.597,13.184,20.996,20.020,77.148,-47.363,0
1578179338.601,28.320,18.555,24.414,69.336,40.527,0
1578179338.605,29.785,17.578,32.227,54.688,107.422,0
1578179338.622,13.672,20.020,26.367,61.523,44.434,0
1578179338.626,17.090,19.043,20.020,60.547,-31.250,0
1578179338.630,40.527,17.090,28.320,59.082,7.812,0
1578179338.634,37.109,18.066,30.273,63.477,59.082,0
1578179338.638,-0.488,15.625,26.367,86.914,41.504,0
1578179338.642,-2.441,16.602,14.160,52.246,-17.090,0
1578179338.646,38.574,12.207,17.578,37.598,-13.672,0
1578179338.649,23.438,5.859,31.250,65.918,41.016,0
1578179338.653,-11.719,11.230,24.902,62.012,40.527,0
1578179338.657,11.719,14.648,17.578,51.270,12.207,0
1578179338.661,19.531,13.672,21.484,51.758,-10.742,0
1578179338.665,3.418,20.508,28.809,57.617,31.738,0
1578179338.667,24.902,19.531,27.344,42.480,75.684,0
1578179338.671,12.695,11.230,24.902,41.016,26.367,0
1578179338.675,-23.926,10.254,29.297,52.734,-19.043,0
1578179338.679,2.930,10.254,28.809,55.664,22.949,0
1578179338.683,18.066,5.859,24.414,59.082,75.195,0
1578179338.687,-3.418,6.836,19.043,66.895,48.340,0
1578179338.691,-7.324,16.113,19.531,62.500,-1.953,0
1578179338.694,-0.977,20.508,29.785,47.852,29.297,0
1578179338.698,17.090,23.926,29.297,45.898,82.520,0
1578179338.702,15.137,25.879,16.602,44.434,52.246,0
1578179338.706,-9.766,26.367,18.066,34.180,-0.977,0
1578179338.710,9.766,24.902,20.020,37.598,-29.785,0
1578179338.712,12.207,18.555,18.555,39.062,50.781,0
1578179338.716,-12.695,20.020,21.484,41.016,97.168,0
1578179338.720,-19.531,20.020,17.578,48.340,14.648,0
1578179338.724,1.953,20.020,18.555,58.105,-27.344,0
1578179338.728,34.668,20.996,23.438,72.754,36.621,0
1578179338.732,28.320,10.254,19.531,49.805,99.121,0
1578179338.736,18.066,7.812,15.625,31.738,40.039,0
1578179338.739,16.113,16.113,21.973,55.664,-30.762,0
1578179338.743,7.324,19.043,20.020,71.289,20.996,0
1578179338.747,-0.977,13.184,21.484,53.223,79.102,0
1578179338.751,-10.254,8.789,27.344,40.039,47.852,0
1578179338.755,1.465,7.324,19.043,52.246,-15.625,0
1578179338.757,36.621,14.160,19.531,69.824,-10.254,0
1578179338.761,16.602,9.277,25.879,64.941,58.594,0
1578179338.765,-17.090,3.418,21.484,43.457,51.758,0
1578179338.769,-5.371,9.277,16.113,64.453,-30.273,0
1578179338.773,32.227,8.301,22.461,85.938,-18.066,0
1578179338.777,37.598,7.324,26.855,46.875,51.270,0
1578179338.781,4.883,11.719,24.902,40.039,49.316,0
1578179338.784,-10.254,10.742,20.508,57.129,1.465,0
1578179338.788,-9.766,8.301,15.625,50.293,-50.781,0
1578179338.792,22.461,5.859,29.297,50.781,-7.324,0
1578179338.796,35.156,10.254,35.645,61.523,61.523,0
1578179338.800,-1.465,19.043,28.320,59.082,-5.371,0
1578179338.802,0.000,17.578,29.297,51.758,-62.988,0
1578179338.806,45.898,15.137,31.738,49.316,-22.461,0
1578179338.810,35.156,18.555,28.320,57.617,47.852,0
1578179338.814,-29.785,14.648,20.020,42.480,14.648,0
1578179338.818,-15.137,15.137,17.090,45.410,-39.062,0
1578179338.822,6.348,21.484,24.414,67.871,-3.418,0
1578179338.826,0.977,22.949,28.320,61.523,76.660,0
1578179338.829,3.418,19.043,13.672,40.039,73.242,0
1578179338.833,-3.418,21.484,13.672,33.691,10.742,0
1578179338.837,1.465,19.531,24.414,41.016,-11.230,0
1578179338.841,29.297,20.020,25.391,54.199,52.246,0
1578179338.845,19.531,20.020,25.879,55.664,66.895,0
1578179338.847,-5.371,12.207,25.879,48.828,-1.465,0
1578179338.851,4.395,17.578,27.832,48.340,-33.203,0
1578179338.855,29.297,21.973,28.809,48.828,3.418,0
1578179338.859,46.387,14.160,31.738,57.617,63.477,0
1578179338.863,16.602,17.090,28.320,73.730,17.090,0
1578179338.867,-22.949,24.414,23.438,63.477,-35.645,0
1578179338.871,-11.230,16.602,29.297,49.316,29.785,0
1578179338.874,21.484,14.160,27.344,48.340,95.703,0
1578179338.878,16.602,18.555,27.832,40.527,55.176,0
1578179338.882,-2.930,14.648,27.344,58.594,-28.320,0
1578179338.886,10.742,14.648,28.320,71.289,6.836,0
1578179338.890,37.109,20.996,30.273,51.270,78.125,0
1578179338.891,17.090,18.555,27.832,43.457,89.844,0
1578179338.895,-16.113,18.066,23.926,52.734,14.648,0
1578179338.899,14.648,19.043,26.855,46.875,-35.156,0
1578179338.903,50.781,17.578,39.551,52.734,82.520,0
1578179338.907,41.016,18.066,41.504,63.965,119.629,0
1578179338.911,8.789,14.648,33.203,58.594,59.082,0
1578179338.915,-3.906,17.578,23.926,46.875,41.504,0
1578179338.918,32.227,21.973,27.832,66.406,40.527,0
1578179338.922,31.250,19.043,41.992,81.055,65.430,0
1578179338.926,-14.648,22.461,36.133,41.504,36.621,0
1578179338.930,-17.090,23.926,24.414,41.992,-57.129,0
1578179338.934,22.949,20.020,24.902,53.711,-45.410,0
1578179338.936,19.043,22.461,27.832,33.691,41.992,0
1578179338.940,2.441,22.949,28.320,49.805,58.594,0
1578179338.944,-2.930,18.555,27.832,54.199,-22.461,0
1578179338.948,11.230,19.043,33.691,37.598,-37.109,0
1578179338.952,48.828,18.066,37.598,42.969,51.758,0
1578179338.956,11.719,17.090,30.762,48.340,66.406,0
1578179338.960,-33.203,26.855,27.344,49.316,4.883,0
1578179338.963,-14.648,28.320,32.227,41.016,-16.602,0
1578179338.967,15.625,20.996,40.039,53.223,37.598,0
1578179338.971,0.000,18.066,41.504,64.941,85.449,0
1578179338.975,-8.789,16.113,32.715,68.359,38.086,0
1578179338.979,17.090,17.578,32.715,68.848,-50.293,0
1578179338.997,10.742,20.020,38.574,34.668,-3.418,0
1578179339.001,-6.348,17.090,33.203,32.715,65.918,0
1578179339.005,16.602,17.578,28.320,52.246,14.648,0
1578179339.009,17.578,15.625,24.414,61.523,-26.367,0
1578179339.013,-9.277,9.766,20.508,50.781,-0.488,1
1578179339.017,6.348,6.348,19.043,23.438,57.617,0
1578179339.021,1.953,4.395,17.090,31.250,73.730,0
1578179339.024,-2.441,10.742,19.043,46.875,-9.277,0
1578179339.028,23.438,19.043,16.602,71.289,-35.645,0
1578179339.032,31.250,25.391,15.137,81.543,38.574,0
1578179339.036,18.555,24.902,14.648,41.016,70.801,0
1578179339.040,22.461,22.461,9.766,61.035,2.441,0
1578179339.042,40.527,19.043,4.395,77.148,-16.113,0
1578179339.046,20.996,19.531,8.301,45.410,47.363,0
1578179339.050,-6.348,21.973,11.719,40.039,66.895,0
1578179339.054,-7.324,22.949,9.766,44.434,23.438,0
1578179339.058,18.555,23.438,7.324,58.594,-28.809,0
1578179339.062,26.367,20.508,6.836,74.707,11.230,0
1578179339.066,33.691,19.531,12.207,69.336,83.008,0
1578179339.069,25.391,17.578,12.207,51.270,67.383,0
1578179339.073,8.301,13.184,3.418,50.293,0.000,0
1578179339.077,19.531,16.113,2.441,59.082,-16.113,0
1578179339.081,16.602,23.926,19.531,87.402,54.688,0
1578179339.085,-4.395,21.973,17.578,72.754,57.617,0
1578179339.087,5.371,17.090,7.324,29.785,-7.324,0
1578179339.091,1.953,18.555,16.113,36.133,-13.672,0
1578179339.095,12.695,19.043,25.391,48.828,49.805,0
1578179339.099,14.160,20.508,17.578,48.828,83.008,0
1578179339.103,16.113,24.902,14.160,67.383,40.039,0
1578179339.107,38.086,22.461,14.648,74.707,5.371,0
1578179339.111,19.531,24.902,21.484,43.457,33.203,0
1578179339.114,24.414,32.227,28.809,44.434,78.125,0
1578179339.118,20.996,29.785,13.672,54.199,24.902,0
1578179339.122,-11.719,21.484,9.766,48.340,-38.574,0
1578179339.126,2.930,14.160,30.273,47.363,5.371,0
1578179339.130,21.973,14.160,33.691,58.594,70.801,0
1578179339.132,10.254,14.648,23.438,50.293,43.457,0
1578179339.136,22.461,12.695,21.973,38.574,-17.090,0
1578179339.140,55.176,12.207,29.785,41.016,-5.859,0
1578179339.144,32.227,11.719,29.785,42.969,54.199,0
1578179339.148,-10.742,12.207,26.367,53.711,36.133,0
1578179339.152,-13.184,11.719,27.344,44.922,-19.531,0
1578179339.156,3.418,18.555,30.273,37.598,-25.879,0
1578179339.159,13.672,25.879,35.156,41.992,38.086,0
1578179339.163,-3.418,24.414,32.227,43.457,54.688,0
1578179339.167,1.465,18.555,40.039,55.664,-4.395,0
1578179339.171,39.551,16.602,41.992,74.707,-46.875,0
1578179339.175,50.293,9.277,36.133,81.055,-10.742,0
1578179339.177,34.668,7.812,30.762,70.312,78.125,0
1578179339.181,5.859,17.090,18.066,55.176,71.289,0
1578179339.185,-4.395,21.973,10.742,54.199,-29.297,0
1578179339.189,8.789,20.996,15.137,62.500,-20.996,0
1578179339.193,11.230,17.578,20.508,57.617,72.754,0
1578179339.197,5.371,19.531,8.789,46.875,55.176,0
1578179339.201,2.930,17.090,2.441,41.016,-10.254,0
1578179339.204,7.324,11.719,-4.883,38.574,-14.648,0
1578179339.208,25.391,6.836,-3.418,53.711,60.547,0
1578179339.212,22.461,5.859,7.324,80.078,104.980,0
1578179339.216,26.855,13.672,-5.859,68.848,40.039,0
1578179339.220,36.133,18.555,-2.441,59.082,26.855,0
1578179339.222,33.691,25.391,13.184,83.984,89.844,0
1578179339.226,4.883,20.508,12.207,63.965,111.816,0
1578179339.230,-19.531,15.625,5.371,51.758,62.012,0
1578179339.234,8.301,20.508,3.906,46.387,10.742,0
1578179339.238,32.715,14.160,10.254,32.227,48.340,0
1578179339.242,21.973,13.184,11.719,42.480,96.680,0
1578179339.246,3.906,18.066,9.277,44.434,68.848,0
1578179339.249,-2.441,20.508,7.812,53.223,42.969,0
1578179339.253,15.625,25.391,19.043,56.641,51.758,0
1578179339.257,56.152,26.855,28.320,52.246,88.379,0
1578179339.261,23.438,20.996,20.508,64.941,74.707,0
1578179339.265,-26.367,14.160,21.973,78.613,-7.812,0
1578179339.266,-14.648,13.672,28.809,47.852,-46.875,0
1578179339.270,1.465,12.207,32.715,29.297,42.969,0
1578179339.274,8.301,12.207,35.156,55.176,69.824,0
1578179339.278,11.230,16.602,35.156,62.988,-23.926,0
1578179339.282,-0.977,15.625,35.645,43.457,-35.156,0
1578179339.286,4.395,15.137,35.645,44.922,44.922,0
1578179339.290,32.715,21.484,32.715,47.363,91.797,0
1578179339.293,12.695,23.438,26.855,52.734,44.922,0
1578179339.297,0.977,17.090,32.715,62.988,12.695,0
1578179339.301,13.184,12.207,35.645,47.363,25.391,0
1578179339.305,24.902,17.090,37.598,47.852,70.312,0
1578179339.309,38.086,21.973,36.133,60.059,71.777,0
1578179339.312,-18.555,16.602,31.250,45.410,-16.602,0
1578179339.316,-29.297,12.207,34.668,43.457,-50.781,0
1578179339.320,3.906,14.648,37.109,46.875,17.090,0
1578179339.324,2.930,18.555,37.109,52.246,49.805,0
1578179339.328,-1.465,18.066,31.738,72.754,-43.457,0
1578179339.332,21.973,12.695,30.762,85.938,-73.730,0
1578179339.336,51.270,15.137,35.645,80.078,8.789,0
1578179339.339,29.297,15.625,41.504,52.734,54.199,0
1578179339.343,-19.531,12.695,37.109,26.367,-3.418,0
1578179339.347,-14.648,13.672,32.715,20.996,-39.551,0
1578179339.351,2.441,14.160,35.156,40.527,-2.441,0
1578179339.355,5.371,14.648,41.992,47.363,36.133,0
1578179339.372,-3.906,14.160,41.992,54.688,15.625,0
1578179339.376,1.465,14.160,34.668,65.430,-51.758,0
1578179339.380,40.527,19.043,34.668,67.871,-20.508,0
1578179339.384,42.969,16.602,29.785,49.316,32.227,0
1578179339.388,29.785,8.301,25.879,41.992,7.324,0
1578179339.392,22.949,7.812,23.438,57.617,-10.742,0
1578179339.396,0.000,8.789,26.367,61.523,1.953,0
1578179339.399,3.906,4.883,35.645,53.711,88.867,0
1578179339.403,5.371,12.695,28.320,51.270,88.867,0
1578179339.407,11.230,12.695,20.508,55.664,-4.395,0
1578179339.411,0.488,-2.441,28.809,80.078,5.859,0
1578179339.415,5.859,3.906,31.250,79.102,55.176,0
1578179339.417,12.207,14.648,23.926,77.148,85.938,0
1578179339.421,-5.371,11.719,17.090,59.082,23.438,0
1578179339.425,17.090,13.672,19.531,20.508,-41.992,0
1578179339.429,21.484,18.066,31.738,34.668,9.766,0
1578179339.433,-6.348,8.301,30.762,47.852,60.059,0
1578179339.437,-21.973,0.000,21.484,58.105,13.672,0
1578179339.441,-8.301,3.906,21.484,65.918,-30.762,0
1578179339.444,0.977,13.184,28.809,58.594,4.883,0
1578179339.448,11.719,11.230,30.273,46.387,52.734,0
1578179339.452,28.320,6.836,19.043,32.227,-2.930,0
1578179339.456,23.438,10.742,28.320,41.016,-52.734,0
1578179339.460,10.254,9.766,35.645,42.969,-26.367,0
1578179339.462,12.695,12.207,31.250,41.992,23.926,0
1578179339.466,-2.930,18.066,28.809,65.918,57.129,0
1578179339.470,-18.066,19.043,21.484,67.383,-5.859,0
1578179339.474,6.348,25.391,27.832,53.223,-46.387,0
1578179339.478,26.367,32.227,30.762,52.734,8.789,0
1578179339.482,14.648,28.809,23.438,67.383,77.148,0
1578179339.486,7.812,25.879,18.066,60.547,59.082,0
1578179339.489,0.977,27.344,20.996,73.730,-10.742,0
1578179339.493,18.555,24.414,19.043,66.895,38.086,0
1578179339.497,52.246,20.996,17.090,50.293,122.559,0
1578179339.501,33.203,24.902,16.113,65.918,66.895,0
1578179339.505,-0.977,18.066,7.812,54.688,-18.066,0
1578179339.507,22.461,13.184,9.277,68.359,4.883,0
1578179339.511,31.738,11.719,13.672,62.988,83.008,0
1578179339.515,5.371,11.719,10.254,41.016,78.125,0
1578179339.519,-0.488,15.625,6.348,49.316,28.320,0
1578179339.523,-13.672,20.996,11.719,82.520,6.348,0
1578179339.527,10.742,18.066,16.602,95.215,82.031,0
1578179339.531,22.461,20.508,15.137,53.223,109.863,0
1578179339.534,11.719,19.531,2.930,51.758,-17.090,0
1578179339.538,22.949,12.695,2.441,56.641,-45.410,0
1578179339.542,24.902,13.672,23.926,51.270,16.602,0
1578179339.546,7.324,10.254,28.320,57.617,71.777,0
1578179339.550,-6.348,12.695,17.578,54.688,69.824,0
1578179339.552,-8.301,21.973,9.766,62.988,-7.324,0
1578179339.556,1.465,20.996,17.578,68.359,-0.977,0
1578179339.560,37.109,8.789,21.973,65.918,69.336,0
1578179339.564,20.996,12.695,14.648,75.684,34.180,0
1578179339.568,-11.719,23.926,11.719,59.570,-29.785,0
1578179339.572,7.324,20.508,9.766,46.875,11.719,0
1578179339.576,24.414,16.602,19.531,62.988,67.383,0
1578179339.579,16.113,18.555,17.090,46.387,63.477,0
1578179339.583,12.207,20.020,16.113,52.246,2.441,0
1578179339.587,-1.465,15.137,29.785,75.684,-29.785,0
1578179339.591,12.695,11.230,28.809,53.711,51.270,0
1578179339.595,33.691,15.625,26.855,51.270,86.426,0
1578179339.597,3.418,18.066,26.367,63.477,16.602,0
1578179339.601,11.230,21.973,26.855,74.707,-31.250,0
1578179339.605,34.180,20.996,29.297,64.453,50.781,0
1578179339.609,16.602,11.230,27.344,41.504,113.281,0
1578179339.613,15.625,12.207,19.043,57.617,36.133,0
1578179339.617,36.621,22.949,8.789,54.199,-24.902,0
1578179339.621,12.207,18.555,11.719,54.199,25.879,0
1578179339.624,9.766,16.602,14.648,60.059,83.008,0
1578179339.628,17.578,23.438,17.090,32.227,73.242,0
1578179339.632,-14.160,20.508,15.137,35.645,-2.930,0
1578179339.636,-10.742,13.672,14.648,62.012,-32.227,0
1578179339.640,14.648,10.742,17.578,55.664,23.926,0
1578179339.642,3.418,11.230,14.160,35.156,33.203,0
1578179339.646,17.578,11.230,13.672,45.410,-46.875,0
1578179339.650,29.785,11.230,16.602,65.430,-44.922,0
1578179339.654,30.273,13.672,23.438,65.430,31.738,0
1578179339.658,15.625,19.531,24.902,52.734,62.012,0
1578179339.662,-9.277,25.391,17.090,44.434,1.953,0
1578179339.666,-4.883,21.973,13.184,44.434,-64.941,0
1578179339.669,14.160,28.320,22.949,46.387,-26.855,0
1578179339.673,38.086,33.691,34.668,54.199,30.273,0
1578179339.677,33.203,23.926,26.855,52.246,-6.348,0
1578179339.681,8.301,18.066,19.531,67.383,-60.547,0
1578179339.685,35.645,21.484,25.391,77.148,-21.973,0
1578179339.687,53.711,22.949,25.391,67.871,37.598,0
1578179339.691,4.395,16.113,12.207,56.152,26.367,0
1578179339.695,-9.277,13.184,3.418,44.434,-21.973,0
1578179339.699,5.371,20.508,10.742,38.574,-28.809,0
1578179339.703,-0.488,19.531,19.531,65.430,40.039,0
1578179339.707,7.812,20.508,10.742,94.238,69.336,0
1578179339.711,7.812,19.043,4.395,71.289,32.227,0
1578179339.714,-1.953,20.020,16.113,53.223,16.602,0
1578179339.718,29.297,24.902,17.578,34.180,53.223,0
1578179339.722,30.762,22.949,13.672,42.969,87.891,0
1578179339.726,-2.930,23.926,10.742,51.758,28.809,0
1578179339.730,4.395,19.531,12.207,45.410,-7.812,0
1578179339.746,31.250,11.719,17.090,55.664,4.883,0
1578179339.750,12.695,7.324,20.020,58.105,35.645,0
1578179339.754,2.441,12.695,16.113,69.824,50.781,0
1578179339.758,11.230,16.602,13.672,76.172,-30.273,0
1578179339.762,-0.488,17.578,19.043,46.875,-9.766,0
1578179339.766,30.762,17.090,11.230,50.781,53.711,0
1578179339.770,32.227,18.066,10.742,71.289,29.785,0
1578179339.773,-0.488,26.855,16.602,49.805,-33.203,0
1578179339.777,10.254,27.832,16.113,37.598,-19.531,0
1578179339.781,12.207,22.461,20.996,43.945,46.875,0
1578179339.785,9.277,20.996,19.043,29.785,46.387,0
1578179339.789,-0.488,19.043,11.230,60.547,-19.043,0
1578179339.791,10.742,15.137,9.766,69.824,-44.434,0
1578179339.795,28.320,14.160,14.648,59.570,28.809,0
1578179339.799,34.180,20.996,15.625,55.664,78.613,0
1578179339.803,25.391,26.855,11.230,47.363,17.090,0
1578179339.807,10.254,26.855,10.742,42.480,-35.645,0
1578179339.811,13.672,22.461,10.742,45.898,26.367,0
1578179339.815,10.742,15.137,11.719,44.434,103.516,0
1578179339.818,22.461,11.719,10.742,46.387,69.824,0
1578179339.822,10.254,14.160,-0.977,54.688,-14.648,0
1578179339.826,-8.301,17.578,-0.488,45.410,-9.277,0
1578179339.830,15.625,14.648,14.160,57.129,48.828,0
1578179339.834,21.973,14.648,8.301,60.059,68.848,0
1578179339.837,12.695,20.996,-1.465,58.594,-30.273,0
1578179339.841,28.320,19.531,8.789,62.012,-44.434,0
1578179339.845,28.809,12.207,16.602,53.223,58.594,0
1578179339.849,13.184,14.648,12.207,51.758,69.336,1
1578179339.853,4.883,16.113,2.930,58.105,10.254,0
1578179339.857,4.883,20.996,2.441,55.176,-27.832,0
1578179339.861,23.438,23.926,17.090,40.039,41.992,0
1578179339.864,19.043,19.043,19.531,44.922,78.125,0
1578179339.868,16.113,16.602,12.207,40.039,34.180,0
1578179339.872,9.766,20.020,17.578,59.082,-22.949,0
1578179339.876,-0.488,20.020,28.809,74.219,-0.488,0
1578179339.880,12.695,14.648,26.855,64.453,76.660,0
1578179339.882,18.555,19.043,17.578,50.293,44.434,0
1578179339.886,-9.277,19.043,15.625,34.668,-20.996,0
1578179339.890,-10.254,6.836,21.484,51.758,1.953,0
1578179339.894,15.625,13.672,23.438,45.898,86.426,0
1578179339.898,17.578,19.043,20.020,36.133,108.398,0
1578179339.902,-5.371,13.184,10.254,52.734,13.184,0
1578179339.906,4.395,20.996,12.695,49.316,-24.414,0
1578179339.909,37.109,23.438,14.160,40.527,15.625,0
1578179339.913,20.996,15.625,8.789,76.172,21.973,0
1578179339.917,-7.812,18.066,9.277,72.754,-34.668,0
1578179339.921,-7.812,20.508,11.719,43.457,-54.199,0
1578179339.925,5.371,18.555,16.113,41.504,27.832,0
1578179339.927,27.832,19.531,15.625,39.062,86.914,0
1578179339.931,28.809,24.414,12.207,44.922,30.273,0
1578179339.935,5.859,25.879,10.742,57.617,-33.203,0
1578179339.939,14.648,19.043,12.695,62.012,4.395,0
1578179339.943,29.297,22.949,13.672,60.547,63.477,0
1578179339.947,18.555,30.762,4.395,62.988,37.109,0
1578179339.951,34.180,28.809,6.348,59.082,3.906,0
1578179339.954,14.160,20.996,12.207,59.570,38.086,0
1578179339.958,31.250,17.578,16.113,68.848,53.223,0
1578179339.962,40.527,17.090,22.949,63.965,41.504,0
1578179339.966,-19.531,16.602,15.137,47.852,-18.066,0
1578179339.970,-13.672,19.531,10.254,49.805,-54.688,0
1578179339.972,4.883,14.160,20.020,57.617,17.090,0
1578179339.976,22.461,11.719,26.855,64.941,82.520,0
1578179339.980,9.277,9.277,18.066,75.195,23.926,0
1578179339.984,7.324,12.207,16.113,67.383,-51.758,0
1578179339.988,48.828,18.066,25.391,55.176,-7.812,0
1578179339.992,41.016,13.184,26.855,45.898,74.219,0
1578179339.996,-14.160,9.277,23.438,44.922,77.148,0
1578179339.999,-28.809,7.324,19.043,45.410,30.273,0
1578179340.003,5.371,7.324,26.855,48.340,33.691,0
1578179340.007,40.039,13.672,30.762,47.363,105.957,0
1578179340.011,54.199,16.602,21.484,59.082,93.262,0
1578179340.015,32.715,14.160,20.996,69.824,8.789,0
1578179340.017,-19.531,10.254,28.320,56.152,25.879,0
1578179340.021,-23.438,18.555,28.809,61.035,84.961,0
1578179340.025,-11.230,22.461,21.973,53.223,79.590,0
1578179340.029,0.000,16.602,20.020,64.941,33.203,0
1578179340.033,25.879,17.090,23.926,70.801,-4.883,0
1578179340.037,32.715,18.066,20.020,52.246,40.527,0
1578179340.041,27.832,14.648,15.137,53.223,104.980,0
1578179340.044,3.418,10.254,20.996,46.387,37.109,0
1578179340.048,-4.395,14.160,29.785,36.133,-34.668,0
1578179340.052,54.688,15.137,32.715,64.941,1.465,0
1578179340.056,41.504,13.672,33.691,67.871,100.586,0
1578179340.060,-28.320,11.719,26.855,48.340,81.055,0
1578179340.061,-19.043,6.348,23.438,72.754,-11.230,0
1578179340.065,4.395,7.812,30.273,60.059,-37.109,0
1578179340.069,18.066,13.184,33.203,27.832,35.156,0
1578179340.073,25.391,17.578,31.738,48.340,62.012,0
1578179340.077,22.949,19.531,29.785,60.547,11.719,0
1578179340.081,17.578,17.090,31.250,50.781,5.859,0
1578179340.085,-1.465,13.672,28.809,59.082,58.594,0
1578179340.088,0.977,15.137,31.250,50.781,86.914,0
1578179340.092,9.277,17.090,23.926,33.691,9.277,0
1578179340.096,-12.207,16.602,15.625,31.738,-29.297,0
1578179340.100,14.160,15.625,25.391,39.062,14.160,0
1578179340.104,36.133,11.719,35.645,48.340,79.590,0
1578179340.122,2.930,12.695,32.715,72.266,40.039,0
1578179340.126,-9.766,21.973,26.367,67.871,-23.926,0
1578179340.130,23.926,21.484,29.785,32.715,18.066,0
1578179340.134,39.551,13.184,28.809,43.457,69.824,0
1578179340.138,12.695,15.137,20.020,57.129,67.383,0
1578179340.142,-7.812,18.555,10.254,48.828,-5.859,0
1578179340.146,-6.348,17.090,16.602,62.500,-12.695,0
1578179340.149,6.836,17.578,26.855,64.941,69.824,0
1578179340.153,13.672,16.113,16.602,37.109,35.156,0
1578179340.157,-2.930,10.742,9.766,43.945,-10.742,0
1578179340.161,-1.953,8.789,15.625,61.035,13.672,0
1578179340.165,16.113,12.695,20.508,42.969,38.574,0
1578179340.167,23.926,16.602,15.625,30.273,73.242,0
1578179340.171,3.906,16.113,14.160,47.852,35.645,0
1578179340.175,-26.855,16.602,19.043,51.270,-25.391,0
1578179340.179,-17.090,19.043,26.367,43.945,6.836,0
1578179340.183,-6.836,13.184,22.949,49.805,54.688,0
1578179340.187,5.371,10.742,12.695,61.523,38.086,0
1578179340.191,20.508,15.137,11.719,56.152,-36.621,0
1578179340.194,5.371,7.324,19.043,38.086,-51.270,0
1578179340.198,0.488,-6.836,19.531,41.016,1.465,0
1578179340.202,15.137,5.371,13.672,41.504,11.230,0
1578179340.206,18.066,21.973,22.461,48.340,-17.090,0
1578179340.210,14.160,19.531,27.344,57.129,-41.504,0
1578179340.212,38.574,11.230,28.320,57.129,9.277,0
1578179340.216,9.766,9.277,29.785,56.152,54.688,0
1578179340.220,-13.184,7.324,30.273,68.359,25.879,0
1578179340.224,21.973,6.836,29.785,56.641,-13.184,0
1578179340.228,30.273,16.602,27.832,28.320,36.133,0
1578179340.232,19.043,15.625,25.391,29.785,92.285,0
1578179340.236,-3.906,11.230,19.043,45.898,12.207,0
1578179340.239,-25.391,20.996,21.973,56.641,-50.293,0
1578179340.243,10.742,16.602,22.461,59.082,-0.977,0
1578179340.247,41.992,10.254,20.508,56.152,55.176,0
1578179340.251,7.324,11.719,25.879,79.590,9.766,0
1578179340.255,-17.090,8.789,23.438,72.266,-41.016,0
1578179340.257,16.113,13.184,21.973,41.016,-21.973,0
1578179340.261,32.227,18.066,24.902,34.180,33.691,0
1578179340.265,44.922,20.996,22.949,50.781,44.434,0
1578179340.269,52.246,14.648,17.578,82.031,-57.617,0
1578179340.273,-9.277,10.742,18.555,53.711,-90.332,0
1578179340.277,-16.602,16.113,23.926,47.852,29.785,0
1578179340.281,2.441,18.555,24.414,65.430,75.684,0
1578179340.284,10.742,14.648,14.648,41.504,17.578,0
1578179340.288,33.203,10.254,7.324,26.855,-35.645,0
1578179340.292,13.672,19.043,12.695,51.270,-9.277,0
1578179340.296,2.441,25.879,15.137,67.383,40.527,0
1578179340.300,-7.324,29.297,16.602,47.852,65.430,0
1578179340.302,-1.953,23.926,13.184,56.152,28.809,0
1578179340.306,22.461,20.020,22.461,61.035,33.203,0
1578179340.310,30.762,21.973,23.438,48.828,74.219,0
1578179340.314,7.812,14.648,16.113,51.758,36.621,0
1578179340.318,2.441,11.230,17.578,54.199,4.883,0
1578179340.322,27.832,9.766,17.090,62.500,34.668,0
1578179340.326,7.812,8.301,16.113,48.828,95.703,0
1578179340.329,-1.465,11.230,6.836,53.223,76.660,0
1578179340.333,7.324,18.066,7.324,63.965,-13.672,0
1578179340.337,8.301,16.602,17.578,48.828,-37.109,0
1578179340.341,24.902,15.137,20.996,46.875,30.762,0
1578179340.345,13.184,15.137,19.043,24.902,45.410,0
1578179340.347,2.441,16.602,17.578,30.273,12.695,0
1578179340.351,22.949,16.113,20.996,54.688,-5.371,0
1578179340.355,25.391,11.719,19.043,52.734,20.020,0
1578179340.359,18.066,13.672,17.578,64.941,78.125,0
1578179340.363,-2.441,8.789,16.113,78.125,45.410,0
1578179340.367,-19.043,12.207,15.625,68.848,-27.832,0
1578179340.371,13.672,16.113,20.020,47.363,6.348,0
1578179340.374,54.688,11.230,22.949,44.434,95.703,0
1578179340.378,14.648,17.578,24.414,43.457,59.570,0
1578179340.382,-17.578,21.973,21.973,29.785,-8.301,0
1578179340.386,29.297,15.137,19.043,35.156,-19.531,0
1578179340.390,22.949,4.883,18.555,42.480,41.016,0
1578179340.392,-10.254,3.418,12.207,42.480,60.059,0
1578179340.396,-19.043,10.742,7.812,41.992,0.000,0
1578179340.400,2.930,15.137,11.230,62.988,-12.695,0
1578179340.404,30.273,19.043,20.996,82.031,60.059,0
1578179340.408,22.461,17.578,18.066,53.711,84.473,0
1578179340.412,32.715,11.719,7.812,20.020,23.926,0
1578179340.416,25.391,16.602,7.324,33.203,9.277,0
1578179340.419,0.488,18.066,15.137,40.039,26.367,0
1578179340.423,-2.441,9.766,24.414,42.969,89.844,0
1578179340.427,-13.184,9.277,20.020,62.012,65.430,0
1578179340.431,-10.742,10.742,17.090,55.176,0.488,0
1578179340.435,7.324,11.719,23.926,36.621,31.250,0
1578179340.437,21.973,18.066,22.461,50.293,49.316,0
1578179340.441,24.414,21.973,20.996,76.660,33.203,0
1578179340.445,41.992,18.066,23.926,70.801,-41.992,0
1578179340.449,32.227,15.137,26.855,39.062,-28.320,0
1578179340.453,13.184,22.949,26.367,39.062,56.152,0
1578179340.457,-2.441,17.090,20.020,75.684,46.875,0
1578179340.461,-33.203,3.418,17.578,73.242,29.297,0
1578179340.464,-16.113,5.371,19.531,33.691,18.555,0
1578179340.468,37.109,13.184,18.555,61.523,21.484,0
1578179340.472,51.758,23.438,17.578,62.500,67.383,0
1578179340.476,19.531,25.391,9.277,41.016,5.371,0
1578179340.480,5.859,26.367,6.348,46.387,-68.359,0
1578179340.497,6.348,28.320,9.766,44.922,-4.395,0
1578179340.501,12.695,21.973,10.742,46.387,58.594,0
1578179340.505,12.695,14.648,12.695,59.082,30.273,0
1578179340.509,0.977,9.766,16.602,50.293,3.906,0
1578179340.513,9.277,14.160,20.020,53.223,4.395,0
1578179340.517,45.898,14.160,19.043,63.477,39.062,0
1578179340.521,25.391,12.695,18.066,52.734,77.637,0
1578179340.524,-16.602,18.066,11.719,56.641,1.465,0
1578179340.528,-4.883,19.531,14.160,59.082,-21.973,0
1578179340.532,32.227,16.113,15.625,46.387,39.062,0
1578179340.536,31.738,9.766,11.719,61.035,60.547,0
1578179340.540,1.953,13.672,11.230,79.102,9.277,0
1578179340.541,9.766,14.648,15.137,63.477,-8.301,0
1578179340.545,33.691,19.531,26.855,56.641,38.086,0
1578179340.549,20.508,22.949,29.297,59.570,54.199,0
1578179340.553,8.789,20.508,22.461,59.082,-5.859,0
1578179340.557,32.227,15.137,13.672,70.312,-70.312,0
1578179340.561,54.199,11.719,12.695,75.195,-0.977,0
1578179340.565,41.016,19.043,13.672,53.711,66.895,0
1578179340.568,-0.488,19.531,11.719,60.059,22.949,0
1578179340.572,-15.625,10.742,3.906,78.125,-39.062,0
1578179340.576,3.906,11.719,-0.488,82.520,-20.508,0
1578179340.580,20.996,20.508,10.254,47.852,68.359,0
1578179340.584,6.348,17.578,13.184,25.391,79.102,0
1578179340.586,3.418,11.230,14.160,73.242,-17.578,0
1578179340.590,31.250,14.160,15.137,95.215,-50.293,0
1578179340.594,34.668,15.137,20.020,57.129,18.066,0
1578179340.598,6.348,8.789,19.531,39.551,55.664,0
1578179340.602,-8.301,4.395,11.719,32.227,20.996,0
1578179340.606,-0.488,2.441,12.207,39.551,-7.324,0
1578179340.610,12.695,9.766,19.043,53.223,28.809,0
1578179340.613,12.207,13.184,23.438,52.734,65.430,0
1578179340.617,-0.977,10.254,8.301,60.547,22.461,0
1578179340.621,13.672,14.648,0.000,67.383,-34.668,0
1578179340.625,39.062,18.555,16.602,56.152,-23.438,0
1578179340.629,16.113,16.602,22.949,39.551,49.805,0
1578179340.632,8.789,20.996,13.672,42.969,59.570,0
1578179340.636,-6.836,24.902,6.836,47.852,-17.578,0
1578179340.640,-6.836,18.555,15.625,60.059,-47.852,0
1578179340.644,36.133,18.555,19.043,71.289,27.344,0
1578179340.648,45.410,24.414,10.254,70.312,45.410,0
1578179340.652,24.414,27.344,4.395,77.637,-6.348,0
1578179340.656,19.043,28.320,7.324,67.383,-21.484,0
1578179340.659,34.180,22.461,11.230,53.223,30.273,2
1578179340.663,6.348,17.578,9.277,45.410,76.660,0
1578179340.667,-15.625,20.020,9.277,57.617,14.160,0
1578179340.671,18.066,26.367,10.254,49.316,-52.246,0
1578179340.675,41.016,20.996,11.719,61.523,-3.418,0
1578179340.677,16.602,11.719,18.066,78.613,86.426,0
1578179340.681,-9.277,15.625,15.137,51.270,39.551,0
1578179340.685,-15.137,20.996,7.812,46.387,-52.246,0
1578179340.689,33.691,25.879,17.578,69.824,-32.715,0
1578179340.693,42.480,32.227,24.902,67.871,79.590,0
1578179340.697,16.602,30.273,16.602,48.828,63.965,0
1578179340.701,9.766,27.832,18.555,51.270,-12.695,0
1578179340.704,1.465,24.414,20.996,35.156,9.277,0
1578179340.708,23.438,22.949,34.668,61.523,65.430,0
1578179340.712,40.039,20.996,46.387,84.961,105.469,0
1578179340.716,0.488,18.555,28.320,59.570,49.316,0
1578179340.720,-19.043,20.508,23.438,36.133,-7.812,0
1578179340.722,18.555,24.414,34.180,52.734,36.621,0
1578179340.726,37.109,22.461,32.227,64.941,71.289,0
1578179340.730,23.926,19.043,16.113,57.129,38.574,0
1578179340.734,20.508,20.020,15.137,56.641,11.719,0
1578179340.738,21.484,20.996,24.414,51.758,30.273,0
1578179340.742,37.109,21.484,23.926,56.152,82.520,0
1578179340.746,41.504,15.625,13.184,65.430,64.453,0
1578179340.749,-10.742,10.742,1.465,65.430,2.441,0
1578179340.753,0.488,12.207,7.324,60.059,-28.809,0
1578179340.757,47.363,14.648,18.066,68.848,28.809,0
1578179340.761,16.602,22.949,13.672,65.430,46.387,0
1578179340.765,-21.484,27.344,2.930,41.016,2.930,0
1578179340.767,-8.789,27.832,7.812,34.180,-0.488,0
1578179340.771,18.555,20.508,13.672,47.852,10.254,0
1578179340.775,7.812,17.578,15.625,61.035,60.059,0
1578179340.779,14.648,19.043,19.043,57.129,49.316,0
1578179340.783,8.301,19.043,16.113,58.105,-8.789,0
1578179340.787,16.602,21.484,17.090,61.035,40.527,0
1578179340.791,42.480,19.531,12.695,41.504,62.988,0
1578179340.794,10.254,20.996,16.113,55.176,20.996,0
1578179340.798,-14.160,18.066,33.203,56.152,2.441,0
1578179340.802,-5.859,13.184,35.645,57.129,46.387,0
1578179340.806,0.488,14.648,30.273,82.520,86.426,0
1578179340.810,4.395,19.043,28.809,55.176,56.152,0
1578179340.812,15.137,19.043,28.320,56.641,-15.625,0
1578179340.816,14.648,15.137,27.344,76.172,-33.691,0
1578179340.820,23.438,12.695,33.203,53.711,55.664,0
1578179340.824,24.414,15.137,39.062,49.805,90.820,0
1578179340.828,-5.371,9.766,33.203,65.918,-22.949,0
1578179340.832,-3.418,9.277,31.250,52.246,-32.227,0
1578179340.836,27.344,11.719,39.551,21.973,53.711,0
1578179340.839,24.902,15.137,49.316,34.668,68.359,0
1578179340.843,4.395,25.879,46.875,50.781,23.438,0
1578179340.847,-0.977,21.973,41.992,49.805,-27.344,0
1578179340.851,18.066,14.160,48.828,35.645,9.277,0
1578179340.855,12.207,11.719,50.293,24.414,64.453,0
1578179340.872,3.906,10.742,43.457,51.270,24.414,0
1578179340.876,-4.883,17.090,37.598,64.453,-15.137,0
1578179340.880,-10.742,20.996,39.062,52.734,24.414,0
1578179340.884,13.184,14.160,44.922,48.828,57.129,0
1578179340.888,16.602,18.555,43.457,59.082,36.133,0
1578179340.892,-6.348,22.949,31.250,61.523,-20.996,0
1578179340.896,14.648,17.578,40.527,53.223,-8.301,0
1578179340.899,34.668,17.090,56.152,60.059,75.684,0
1578179340.903,12.695,23.438,45.898,68.848,39.062,0
1578179340.907,-0.488,20.508,37.109,68.359,-40.039,0
1578179340.911,-8.301,14.648,41.016,45.898,-34.180,0
1578179340.915,-8.789,14.160,47.852,21.484,14.160,0
1578179340.917,1.465,15.137,43.457,25.391,69.824,0
1578179340.921,-11.230,16.602,29.785,52.246,-10.254,0
1578179340.925,0.000,19.531,26.855,55.176,-78.613,0
1578179340.929,29.297,26.367,31.738,35.645,-11.230,0
1578179340.933,37.109,27.832,27.344,52.246,40.039,0
1578179340.937,22.461,20.020,18.555,67.871,19.043,0
1578179340.941,6.836,19.043,16.113,48.340,-36.621,0
1578179340.944,12.695,21.973,23.438,33.203,-37.109,0
1578179340.948,24.414,19.531,20.508,46.387,26.367,0
1578179340.952,17.578,18.555,12.207,48.828,28.809,0
1578179340.956,-19.531,13.672,19.043,39.551,-33.203,0
1578179340.960,-10.254,14.160,18.066,51.270,-22.949,0
1578179340.962,16.113,10.742,15.137,62.500,53.223,0
1578179340.966,8.301,5.371,14.160,74.707,62.500,0
1578179340.970,-6.836,7.812,-1.953,75.195,-26.367,0
1578179340.974,10.254,14.648,-3.418,58.105,-38.086,0
1578179340.978,49.805,15.625,4.883,54.688,54.199,0
1578179340.982,35.645,15.137,1.465,42.480,99.121,0
1578179340.986,-9.277,17.578,-4.395,28.320,15.625,0
1578179340.989,-7.324,16.602,-0.977,42.480,-60.547,0
1578179340.993,33.691,9.766,1.465,52.246,-4.883,0
1578179340.997,35.645,13.184,9.277,56.641,72.266,0
1578179341.001,-18.555,20.508,16.113,41.992,29.297,0
1578179341.005,-19.531,18.555,9.277,39.551,-24.414,0
1578179341.007,35.156,15.625,12.207,66.406,9.277,0
1578179341.011,22.949,14.648,16.113,76.660,61.035,0
1578179341.015,3.906,19.531,6.836,61.035,53.711,0
1578179341.019,-0.488,15.625,-4.395,41.992,-13.672,0
1578179341.023,10.742,10.742,-2.441,62.012,-18.555,0
1578179341.027,31.738,16.113,4.395,56.152,35.156,0
1578179341.031,22.461,19.531,8.301,41.504,59.082,0
1578179341.034,1.953,15.137,10.254,55.664,-1.465,0
1578179341.038,4.395,18.555,5.371,50.781,-40.527,0
1578179341.042,36.133,23.438,13.184,38.086,15.137,0
1578179341.046,44.434,21.973,17.090,41.016,53.223,0
1578179341.050,7.324,17.578,13.184,55.664,39.551,0
1578179341.052,2.930,20.020,12.695,63.965,-15.137,0
1578179341.056,34.180,24.902,20.996,57.617,-6.836,0
1578179341.060,27.344,21.484,27.344,64.453,39.551,0
1578179341.064,11.719,6.348,19.531,64.941,36.133,0
1578179341.068,-4.395,5.859,10.742,48.340,9.766,0
1578179341.072,20.508,20.996,14.160,49.316,-26.855,0
1578179341.076,24.414,20.508,23.926,42.480,39.551,0
1578179341.079,0.488,14.648,20.508,49.805,74.219,0
1578179341.083,-10.742,13.184,11.230,60.547,-22.461,0
1578179341.087,-11.719,12.695,18.555,44.922,-28.809,0
1578179341.091,2.441,9.277,21.973,37.598,37.109,0
1578179341.095,5.859,12.695,19.531,53.223,68.848,0
1578179341.097,20.996,13.184,15.137,49.316,4.883,0
1578179341.101,28.320,2.930,9.277,41.992,-56.152,0
1578179341.105,17.090,4.395,15.137,46.387,-2.930,0
1578179341.109,3.418,14.648,20.020,76.172,57.617,0
1578179341.113,-2.441,15.625,14.160,71.289,12.207,0
1578179341.117,-11.230,10.254,8.789,39.062,-36.133,0
1578179341.121,0.488,6.348,8.301,40.039,-13.672,0
1578179341.124,45.410,6.348,12.695,40.527,60.059,0
1578179341.128,33.203,8.301,15.625,47.363,57.617,0
1578179341.132,-11.719,8.301,12.695,55.176,-38.574,0
1578179341.136,-5.371,12.695,11.230,62.988,-18.066,0
1578179341.140,20.020,18.066,13.184,74.707,51.270,0
1578179341.142,41.504,14.160,14.648,78.613,53.223,0
1578179341.146,48.828,11.719,10.254,74.219,-12.695,0
1578179341.150,30.273,11.719,9.277,66.895,-52.734,0
1578179341.154,17.578,6.836,16.602,52.734,14.648,0
1578179341.158,11.719,4.883,19.531,51.758,69.824,0
1578179341.162,1.953,10.254,10.742,49.805,26.367,0
1578179341.166,0.977,7.812,6.348,47.363,-4.883,0
1578179341.169,18.555,10.254,14.160,59.082,10.254,0
1578179341.173,39.062,18.555,22.461,73.242,75.684,0
1578179341.177,26.855,19.043,14.160,62.012,44.922,0
1578179341.181,8.789,22.949,13.184,46.875,-27.832,0
1578179341.185,9.277,17.578,18.555,68.848,8.301,0
1578179341.187,36.133,13.672,22.949,73.242,72.754,0
1578179341.191,31.738,20.996,17.090,46.387,55.664,0
1578179341.195,-3.418,20.996,5.859,36.133,-15.625,0
1578179341.199,11.230,17.578,16.113,52.734,-11.230,0
1578179341.203,30.273,14.648,20.508,62.500,51.270,0
1578179341.207,22.461,12.695,5.371,64.941,73.242,0
1578179341.211,11.230,15.625,-2.930,46.387,-1.953,0
1578179341.214,-1.465,20.508,5.859,36.621,-15.137,0
1578179341.218,-0.488,22.949,13.672,52.734,22.949,0
1578179341.222,5.371,17.090,12.695,55.176,64.941,0
1578179341.226,-6.348,15.625,7.324,48.828,77.148,0
1578179341.230,-13.184,14.160,4.883,42.480,-5.859,0
1578179341.247,14.160,14.160,11.719,57.617,-9.766,0
1578179341.251,43.945,18.066,14.648,55.664,61.523,0
1578179341.255,4.395,17.090,13.184,41.016,34.668,0
1578179341.259,-12.207,15.625,16.602,46.875,-44.434,0
1578179341.263,-2.441,7.812,19.531,35.645,-41.504,0
1578179341.267,4.883,7.812,22.461,31.738,74.707,0
1578179341.271,10.254,19.531,26.855,41.992,119.629,0
1578179341.274,-10.254,18.066,24.414,58.105,24.902,0
1578179341.278,0.977,9.766,25.879,58.594,-34.668,0
1578179341.282,18.066,14.648,32.227,53.711,27.832,0
1578179341.286,5.371,18.066,34.180,42.969,62.500,0
1578179341.290,-16.113,16.602,34.668,48.340,-1.465,0
1578179341.292,2.441,16.113,34.668,57.617,-35.645,0
1578179341.296,11.230,12.207,36.133,46.875,0.977,0
1578179341.300,8.789,6.348,39.551,38.086,75.195,0
1578179341.304,11.719,8.789,31.738,56.641,43.457,0
1578179341.308,1.465,8.789,23.438,57.617,-35.645,0
1578179341.312,4.395,3.906,28.320,66.895,2.441,0
1578179341.316,34.180,11.719,33.203,74.219,80.078,0
1578179341.319,4.395,20.508,36.133,65.430,72.754,0
1578179341.323,-41.016,20.508,27.344,57.129,-3.418,0
1578179341.327,20.508,22.461,18.066,31.738,-9.277,0
1578179341.331,39.551,20.020,32.227,34.668,82.031,0
1578179341.335,-8.301,13.672,35.156,31.250,105.957,0
1578179341.337,-7.812,11.230,22.461,44.922,29.785,0
1578179341.341,-3.418,10.254,22.461,73.730,7.812,0
1578179341.345,19.531,8.301,27.832,71.777,59.082,0
1578179341.349,30.762,10.742,22.461,47.363,93.750,0
1578179341.353,8.301,9.766,13.184,59.082,40.527,0
1578179341.357,-9.277,8.301,11.719,64.453,10.254,0
1578179341.361,19.043,14.160,23.438,49.805,46.875,0
1578179341.364,20.508,11.230,29.785,57.129,104.980,0
1578179341.368,3.418,9.277,9.766,47.852,74.707,0
1578179341.372,10.254,8.789,2.930,33.691,0.488,0
1578179341.376,31.250,10.742,22.461,64.453,-6.836,0
1578179341.380,28.809,15.625,25.391,62.012,50.781,0
1578179341.382,19.531,16.602,20.508,52.734,72.266,0
1578179341.386,31.250,16.113,18.066,56.641,0.488,0
1578179341.390,8.301,11.719,22.949,69.824,-22.461,0
1578179341.394,7.812,12.207,26.367,66.895,55.176,0
1578179341.398,20.996,13.184,18.066,35.645,77.637,0
1578179341.402,-7.324,7.324,13.672,47.852,27.832,0
1578179341.406,1.465,11.719,16.602,54.199,-2.930,0
1578179341.409,21.484,22.461,18.555,48.340,35.156,0
1578179341.413,14.160,22.461,13.672,56.641,48.828,0
1578179341.417,17.090,18.066,17.578,48.340,12.695,0
1578179341.421,4.883,21.973,20.020,49.805,11.230,0
1578179341.425,31.250,20.996,11.719,44.434,10.742,0
1578179341.426,41.992,15.137,10.742,47.363,54.688,0
1578179341.430,5.371,17.578,16.113,60.059,50.781,0
1578179341.434,0.977,18.555,15.137,52.246,-6.836,0
1578179341.438,-0.488,13.672,20.508,55.664,13.672,0
1578179341.442,7.812,20.508,23.438,45.410,83.984,0
1578179341.446,30.273,23.438,13.184,52.246,79.590,0
1578179341.450,30.273,16.602,10.742,50.781,-14.160,0
1578179341.453,-9.277,17.090,11.230,46.875,-66.406,0
1578179341.457,-6.348,17.578,17.578,34.668,38.574,0
1578179341.461,2.930,15.625,27.344,45.410,82.031,0
1578179341.465,-18.066,18.066,17.578,72.266,21.973,0
1578179341.469,8.301,16.113,9.277,45.410,-22.461,0
1578179341.472,26.855,16.602,18.066,28.809,19.043,0
1578179341.476,11.719,19.043,20.020,59.570,81.055,0
1578179341.480,26.367,25.391,4.883,65.430,45.898,0
1578179341.484,5.371,29.297,4.883,48.340,17.578,0
1578179341.488,-7.324,22.461,14.648,42.969,24.902,0
1578179341.492,17.090,15.137,11.719,31.250,65.918,0
1578179341.496,-5.859,16.113,14.160,37.109,65.918,0
1578179341.499,-11.230,20.020,16.113,62.500,28.809,0
1578179341.503,18.555,24.902,25.879,68.848,20.996,0
1578179341.507,14.648,23.438,27.832,66.895,51.758,0
1578179341.511,17.090,22.461,16.113,59.082,91.797,0
1578179341.515,18.066,25.879,12.207,56.152,32.227,0
1578179341.517,-1.465,17.090,13.672,41.992,33.691,0
1578179341.521,15.625,12.207,11.230,66.406,76.172,0
1578179341.525,35.156,19.531,9.277,69.336,59.570,0
1578179341.529,6.836,20.996,8.301,36.133,54.688,0
1578179341.533,-9.766,11.230,4.883,58.594,15.625,0
1578179341.537,19.531,7.812,8.301,45.898,13.672,0
1578179341.541,10.254,18.555,4.883,27.344,75.684,1
1578179341.544,-7.324,24.414,-2.441,29.297,50.781,0
1578179341.548,3.418,21.484,7.812,35.645,-11.719,0
1578179341.552,8.301,20.996,8.301,50.781,-3.418,0
1578179341.556,10.254,20.508,7.812,51.270,86.426,0
1578179341.560,1.953,18.555,8.301,45.410,93.262,0
1578179341.562,-0.977,10.254,10.742,57.129,-8.789,0
1578179341.566,19.531,7.812,13.672,75.195,-12.207,0
1578179341.570,28.320,19.043,9.277,37.109,59.082,0
1578179341.574,1.465,19.043,10.742,31.250,93.262,0
1578179341.578,7.324,18.555,5.859,48.340,22.461,0
1578179341.582,22.461,22.949,0.977,35.645,-15.625,0
1578179341.586,4.395,26.855,6.348,27.344,39.551,0
1578179341.589,21.973,20.508,14.648,48.828,49.805,0
1578179341.593,15.137,15.137,16.113,69.336,18.066,0
1578179341.597,7.324,13.184,13.672,65.430,-21.484,0
1578179341.601,16.602,11.719,23.438,45.410,3.906,0
1578179341.605,1.465,20.996,27.832,49.316,58.105,0
1578179341.622,-2.441,18.555,20.508,56.641,36.621,0
1578179341.626,0.977,17.578,16.113,56.641,-17.578,0
1578179341.630,20.020,21.484,19.531,56.152,-2.441,0
1578179341.634,15.137,10.254,20.508,46.387,36.621,0
1578179341.638,-9.766,9.277,17.090,45.410,59.570,0
1578179341.642,4.883,22.949,4.395,35.645,5.859,0
1578179341.646,20.508,27.832,5.859,23.438,-27.344,0
1578179341.649,18.555,28.320,21.484,32.227,41.992,0
1578179341.653,19.043,26.367,20.996,49.805,68.359,0
1578179341.657,0.000,13.184,14.160,49.805,23.926,0
1578179341.661,5.859,11.719,14.648,45.410,5.371,0
1578179341.665,19.043,16.602,25.391,51.758,43.457,0
1578179341.667,3.906,11.719,25.879,47.852,84.961,0
1578179341.671,15.625,11.719,20.020,55.664,36.133,0
1578179341.675,16.602,6.348,20.020,80.078,-20.996,0
1578179341.679,-3.906,8.789,22.949,63.965,8.301,0
1578179341.683,6.836,25.391,24.414,59.082,64.941,0
1578179341.687,-1.465,28.320,18.555,52.734,56.641,0
1578179341.691,7.324,20.020,19.531,33.691,16.602,0
1578179341.694,34.180,18.555,22.461,62.012,-35.156,0
1578179341.698,35.645,18.066,21.484,83.496,-5.371,0
1578179341.702,0.977,16.113,18.066,47.363,37.598,0
1578179341.706,-11.719,14.160,21.484,31.738,-33.203,0
1578179341.710,15.137,14.160,24.902,56.641,-71.777,0
1578179341.712,28.809,13.184,28.809,66.895,13.672,0
1578179341.716,20.508,10.742,29.785,57.617,45.898,0
1578179341.720,20.020,16.602,24.902,63.965,-26.855,0
1578179341.724,28.320,22.949,21.484,69.824,-58.105,0
1578179341.728,36.621,20.508,22.949,53.711,-6.836,0
1578179341.732,33.691,19.531,28.320,69.336,56.152,0
1578179341.736,15.625,20.508,24.902,78.613,-5.859,0
1578179341.739,24.902,20.020,21.973,56.152,-79.590,0
1578179341.743,49.316,20.508,25.391,73.242,-22.461,0
1578179341.747,22.949,19.531,29.297,81.055,64.453,0
1578179341.751,7.812,14.160,24.902,78.613,51.758,0
1578179341.755,10.254,15.137,18.555,82.031,-20.020,0
1578179341.757,8.789,15.625,30.762,31.738,-19.531,0
1578179341.761,26.367,22.461,40.039,24.902,35.645,0
1578179341.765,47.852,24.414,37.598,53.711,41.016,0
1578179341.769,20.508,18.555,35.645,56.152,-37.598,0
1578179341.773,-17.578,21.484,41.504,58.594,-8.301,0
1578179341.777,4.883,21.484,42.969,66.406,86.914,0
1578179341.781,14.160,20.508,47.852,57.129,79.590,0
1578179341.784,-10.742,16.113,57.617,46.875,11.230,0
1578179341.788,-7.812,14.648,58.105,45.410,-52.734,0
1578179341.792,16.113,18.555,71.289,49.316,-18.066,0
1578179341.796,9.277,17.578,78.613,45.898,69.336,0
1578179341.800,-9.277,15.137,68.848,52.246,35.645,0
1578179341.802,-10.742,16.113,69.824,56.152,-27.344,0
1578179341.806,16.113,18.066,79.102,63.965,-14.648,0
1578179341.810,25.391,14.648,75.195,58.594,17.578,0
1578179341.814,3.418,7.324,77.148,41.016,32.715,0
1578179341.818,14.648,18.066,76.172,53.223,-42.480,0
1578179341.822,12.207,18.555,75.195,51.270,-48.340,0
1578179341.826,16.602,13.672,91.797,58.594,47.363,0
1578179341.829,16.113,22.949,85.938,55.664,87.402,0
1578179341.833,-15.137,20.508,79.590,44.922,23.926,0
1578179341.837,-12.695,12.207,89.844,56.641,15.137,0
1578179341.841,20.020,4.395,95.215,50.293,77.148,0
1578179341.845,31.250,8.301,101.562,45.898,79.590,0
1578179341.847,5.371,18.555,97.656,49.316,18.555,0
1578179341.851,-12.695,17.578,97.656,48.828,-39.551,0
1578179341.855,8.301,7.812,101.562,54.688,10.254,0
1578179341.859,11.719,0.488,105.957,44.922,69.824,0
1578179341.863,-8.301,2.930,106.934,44.922,39.062,0
1578179341.867,0.977,9.277,101.074,53.223,-22.461,0
1578179341.871,33.203,15.137,111.328,41.992,-16.602,0
1578179341.874,38.086,17.090,122.070,33.203,31.250,0
1578179341.878,13.184,16.602,124.512,50.781,43.457,0
1578179341.882,-2.930,15.625,121.582,83.984,3.906,0
1578179341.886,27.832,14.648,116.211,66.895,-20.020,0
1578179341.890,36.621,14.648,123.535,47.852,52.246,0
1578179341.892,3.906,18.555,123.535,62.500,84.473,0
1578179341.896,3.418,23.438,120.605,53.711,17.090,0
1578179341.900,12.207,14.160,128.418,55.176,-4.883,0
1578179341.904,24.902,12.695,131.836,50.781,42.969,0
1578179341.908,37.109,17.578,139.648,52.734,85.938,0
1578179341.912,9.277,13.672,138.672,58.105,73.730,0
1578179341.916,-6.348,14.648,120.117,38.086,-8.301,0
1578179341.919,23.438,17.578,114.258,51.758,24.414,0
1578179341.923,24.902,13.184,119.629,67.871,83.496,0
1578179341.927,13.672,7.812,100.098,43.457,28.320,0
1578179341.931,10.254,13.672,83.496,52.246,-11.230,0
1578179341.935,30.273,15.625,83.008,66.406,-11.719,0
1578179341.937,24.414,15.137,80.566,55.176,51.758,0
1578179341.941,-10.254,17.578,72.754,47.852,51.270,0
1578179341.945,-9.277,13.184,62.500,58.594,-20.996,0
1578179341.949,2.441,11.230,56.152,58.594,-12.207,0
1578179341.953,18.555,20.020,60.059,53.711,46.875,0
1578179341.957,16.113,25.391,68.848,61.523,78.125,0
1578179341.961,-3.906,24.414,61.523,42.969,36.621,0
1578179341.964,2.930,28.320,61.035,36.133,-46.387,0
1578179341.968,40.527,26.855,70.312,41.016,5.859,0
1578179341.972,31.250,22.461,60.547,47.852,83.984,0
1578179341.976,-14.648,17.578,49.316,52.734,22.949,0
1578179341.980,-7.812,18.555,49.316,44.434,-20.996,0
1578179341.997,8.789,23.438,53.711,65.918,-5.859,0
1578179342.001,1.465,26.367,59.082,85.938,69.824,0
1578179342.005,5.859,28.320,53.223,58.594,46.875,0
1578179342.009,0.488,22.949,50.781,43.457,-55.664,0
1578179342.013,13.184,27.344,60.059,72.754,-47.363,0
1578179342.017,53.223,33.691,53.223,70.312,4.883,0
1578179342.021,16.602,33.691,48.340,38.086,16.602,0
1578179342.024,-27.344,35.645,55.176,51.758,-36.133,0
1578179342.028,-2.930,33.203,57.129,53.711,-28.809,0
1578179342.032,20.996,32.715,53.223,41.504,20.020,0
1578179342.036,11.230,39.551,55.176,48.340,51.758,0
1578179342.040,0.977,40.039,52.246,46.875,-8.301,0
1578179342.042,14.648,36.133,48.828,52.246,-60.059,0
1578179342.046,36.133,34.668,57.129,51.270,25.391,0
1578179342.050,36.621,38.086,63.477,49.805,94.238,0
1578179342.054,21.973,40.039,62.500,52.734,64.453,0
1578179342.058,-6.836,33.203,57.617,63.965,-5.371,0
1578179342.062,-11.719,25.879,58.594,62.012,32.227,0
1578179342.066,27.344,26.855,55.664,60.547,82.520,0
1578179342.069,20.996,27.344,49.316,65.430,42.480,0
1578179342.073,2.930,23.926,38.086,72.754,-56.152,0
1578179342.077,18.555,28.809,31.250,64.941,-79.590,0
1578179342.081,10.742,25.879,45.898,34.180,27.832,0
1578179342.085,16.602,19.531,44.922,29.785,44.922,0
1578179342.087,10.254,26.367,38.086,42.969,-1.953,0
1578179342.091,-10.742,31.250,42.480,42.969,0.488,0
1578179342.095,27.832,33.691,42.969,46.387,36.621,0
1578179342.099,47.363,33.691,42.480,56.641,52.246,0
1578179342.103,9.277,34.668,33.691,51.270,-13.672,0
1578179342.107,0.000,38.574,31.250,41.992,-20.996,0
1578179342.111,14.160,36.133,40.039,48.828,52.734,0
1578179342.114,22.461,33.203,41.504,79.590,71.777,0
1578179342.118,25.879,30.762,25.879,67.383,90.332,0
1578179342.122,11.230,32.715,15.137,56.641,50.293,0
1578179342.126,16.602,35.645,20.508,78.125,-4.395,0
1578179342.130,28.809,29.297,20.508,49.316,62.988,0
1578179342.132,2.441,24.902,12.695,48.340,83.008,0
1578179342.136,-2.930,30.762,6.348,55.176,26.855,0
1578179342.140,21.484,31.738,9.766,43.945,14.160,0
1578179342.144,22.461,24.414,9.766,76.172,31.250,0
1578179342.148,18.066,26.367,7.324,57.617,52.246,0
1578179342.152,30.762,30.273,3.906,47.852,51.270,0
1578179342.156,2.930,22.949,5.371,47.852,-34.668,0
1578179342.159,-6.348,21.973,9.766,51.758,-8.789,0
1578179342.163,11.230,26.367,5.859,54.688,34.668,0
1578179342.167,14.648,22.461,10.254,38.574,-21.484,0
1578179342.171,2.930,22.461,17.578,62.500,-55.176,0
1578179342.175,24.902,27.344,14.648,67.871,-13.672,0
1578179342.177,49.805,26.855,21.484,58.105,36.133,0
1578179342.181,17.578,22.949,33.203,63.477,24.902,0
1578179342.185,6.836,23.438,19.531,51.758,-41.992,0
1578179342.189,18.066,26.367,16.113,51.270,-31.738,0
1578179342.193,24.414,28.809,28.320,65.918,60.059,0
1578179342.197,16.602,32.715,28.320,61.035,79.102,0
1578179342.201,3.906,31.250,30.762,42.969,-2.441,0
1578179342.204,31.738,28.320,32.715,60.547,-19.531,0
1578179342.208,33.691,25.391,41.504,63.965,75.684,0
1578179342.212,0.488,23.926,48.828,69.336,81.543,0
1578179342.216,0.488,24.414,38.574,74.707,13.672,0
1578179342.220,29.785,20.508,37.598,51.270,18.066,0
1578179342.222,32.227,18.066,43.457,54.688,54.199,0
1578179342.226,12.695,19.531,45.410,47.363,98.633,0
1578179342.230,-3.418,16.113,37.109,52.246,88.379,0
1578179342.234,-9.766,11.719,32.715,55.664,29.785,0
1578179342.238,6.348,14.160,42.969,42.480,42.480,0
1578179342.242,7.812,19.531,41.992,33.691,110.840,0
1578179342.246,-4.883,19.043,32.715,47.363,83.008,0
1578179342.249,9.277,11.230,28.320,45.410,22.461,0
1578179342.253,1.465,17.090,38.086,39.062,14.160,0
1578179342.257,8.789,30.273,50.293,71.289,56.641,0
1578179342.261,21.973,29.785,44.434,84.961,83.008,0
1578179342.265,-10.254,23.438,32.715,63.965,14.160,0
1578179342.267,6.836,29.297,38.574,51.270,-59.082,0
1578179342.271,20.996,34.180,47.852,65.918,1.465,0
1578179342.275,14.648,24.414,44.434,54.688,33.203,0
1578179342.279,2.441,15.625,41.016,38.086,-26.855,1
1578179342.283,9.277,20.020,38.574,44.434,-55.176,0
1578179342.287,34.180,23.926,36.621,48.340,1.953,0
1578179342.291,18.555,22.461,26.367,62.500,30.273,0
1578179342.294,-6.836,20.996,23.926,56.152,0.000,0
1578179342.298,-20.508,16.602,33.203,52.734,-48.828,0
1578179342.302,18.066,26.367,36.621,62.988,-42.480,0
1578179342.306,42.480,29.785,37.598,71.289,36.133,0
1578179342.310,9.277,21.973,31.250,63.477,39.551,0
1578179342.312,-15.625,24.414,26.367,71.289,-18.066,0
1578179342.316,-8.789,30.273,20.508,50.781,-39.062,0
1578179342.320,12.207,28.809,17.578,43.945,41.992,0
1578179342.324,16.602,23.438,16.113,67.871,76.172,0
1578179342.328,17.090,23.438,6.348,49.805,-1.953,0
1578179342.332,46.875,21.484,2.441,40.527,-50.781,0
1578179342.336,54.688,25.879,-0.977,49.805,7.324,0
1578179342.339,1.953,20.508,1.953,84.473,49.805,0
1578179342.343,-38.086,10.742,5.859,63.477,17.090,0
1578179342.347,-21.973,18.066,-2.441,22.461,-20.020,0
1578179342.351,-2.441,24.414,0.977,25.879,0.000,0
1578179342.355,21.484,24.414,13.184,31.738,80.078,0
1578179342.372,26.855,20.020,8.301,38.574,68.359,0
1578179342.376,3.906,18.066,0.000,71.777,-6.836,0
1578179342.380,-10.742,16.113,6.836,57.129,-3.418,0
1578179342.384,0.000,15.137,20.508,34.180,44.434,0
1578179342.388,-9.277,14.160,18.066,64.941,31.250,0
1578179342.392,-5.371,14.160,5.859,55.664,-15.625,0
1578179342.396,21.973,20.996,17.090,45.410,-16.113,0
1578179342.399,51.270,20.508,29.785,37.598,46.875,0
1578179342.403,53.711,15.625,23.926,45.410,57.129,0
1578179342.407,11.719,21.973,15.625,51.758,5.859,0
1578179342.411,-5.859,21.973,14.160,48.828,3.906,0
1578179342.415,6.348,14.160,21.484,46.387,21.484,0
1578179342.417,4.883,18.066,26.367,50.293,48.828,0
1578179342.421,18.555,19.531,20.508,57.617,30.273,0
1578179342.425,-1.465,10.254,15.625,59.570,-24.414,0
1578179342.429,14.648,16.602,20.996,62.012,17.090,0
1578179342.433,41.992,24.414,21.484,66.895,71.777,0
1578179342.437,11.719,14.160,8.789,65.918,33.691,0
1578179342.441,11.230,10.254,4.395,48.828,5.371,0
1578179342.444,28.809,14.160,11.230,47.363,14.648,0
1578179342.448,23.926,16.113,10.742,55.664,52.246,0
1578179342.452,20.020,12.695,5.371,60.059,77.637,0
1578179342.456,19.043,11.719,6.836,58.594,17.578,0
1578179342.460,21.973,13.672,7.324,55.176,-20.508,0
1578179342.462,26.367,16.113,10.254,71.777,51.270,0
1578179342.466,35.156,9.766,13.672,79.590,121.582,0
1578179342.470,35.156,4.883,1.465,63.965,46.387,0
1578179342.474,22.461,10.742,1.465,52.734,-40.527,0
1578179342.478,5.859,20.996,17.578,56.152,-1.465,0
1578179342.482,31.738,26.367,21.973,75.684,87.402,0
1578179342.486,33.691,24.902,20.508,45.898,48.340,0
1578179342.489,11.230,22.949,19.531,31.738,-17.578,0
1578179342.493,28.320,20.996,13.672,51.758,9.766,0
1578179342.497,18.066,16.602,20.020,61.523,57.129,0
1578179342.501,-14.160,18.066,27.344,43.945,53.711,0
1578179342.505,-22.949,21.973,18.555,33.203,4.883,0
1578179342.507,8.301,19.043,17.578,60.059,11.719,0
1578179342.511,11.230,19.531,21.484,66.895,26.855,0
1578179342.515,15.625,16.113,19.043,49.316,30.273,0
1578179342.519,28.320,13.184,11.230,52.246,-14.160,0
1578179342.523,8.789,17.578,15.137,72.754,-39.551,0
1578179342.527,2.441,16.113,22.949,74.707,36.133,0
1578179342.531,8.789,15.137,23.438,57.617,84.961,0
1578179342.534,-13.672,17.090,18.555,35.645,45.410,0
1578179342.538,-16.113,14.648,8.789,40.527,-6.836,0
1578179342.542,35.645,16.113,19.043,56.152,31.250,0
1578179342.546,52.734,18.066,23.438,47.852,67.383,0
1578179342.550,15.625,19.043,12.207,47.363,15.625,0
1578179342.552,-2.441,20.996,13.184,47.852,-3.906,0
1578179342.556,26.367,23.438,20.020,43.945,-6.836,0
1578179342.560,23.926,26.367,26.855,62.988,52.734,0
1578179342.564,8.301,16.113,25.391,60.547,57.129,0
1578179342.568,3.418,12.207,23.926,57.129,-24.902,0
1578179342.572,14.648,22.461,21.973,71.777,-24.414,0
1578179342.576,55.664,23.926,25.391,67.871,34.668,0
1578179342.579,39.551,23.438,14.160,56.641,62.500,0
1578179342.583,6.348,21.973,0.488,46.875,10.254,0
1578179342.587,24.902,26.367,16.113,51.758,-47.852,0
1578179342.591,16.602,29.297,23.438,54.199,-13.672,0
1578179342.595,-0.977,26.855,23.926,46.875,54.199,0
1578179342.597,10.254,27.832,21.484,51.270,14.160,0
1578179342.601,16.602,24.414,17.090,76.172,-50.781,0
1578179342.605,14.160,20.996,16.602,81.055,0.977,0
1578179342.609,17.578,24.414,17.578,50.781,54.199,0
1578179342.613,-3.906,22.949,15.625,35.156,20.020,0
1578179342.617,-32.227,16.113,12.695,49.805,-12.695,0
1578179342.621,2.930,16.602,18.555,62.012,7.324,0
1578179342.624,27.344,16.113,23.926,52.246,40.039,0
1578179342.628,24.902,16.113,32.715,36.133,62.500,0
1578179342.632,3.418,18.066,31.250,34.668,3.906,0
1578179342.636,-3.418,20.020,27.344,46.387,-23.926,0
1578179342.640,16.602,25.391,30.273,64.941,38.086,0
1578179342.642,10.254,20.996,35.645,76.660,60.059,0
1578179342.646,-19.043,20.996,37.109,67.871,12.207,0
1578179342.650,0.977,21.973,32.715,55.664,-44.922,0
1578179342.654,32.227,12.207,40.039,52.246,6.348,0
1578179342.658,37.598,18.066,42.480,53.223,77.148,0
1578179342.662,20.996,25.391,36.621,54.199,76.660,0
1578179342.666,3.418,15.137,29.785,63.477,22.461,0
1578179342.669,13.672,15.137,33.691,53.223,16.602,0
1578179342.673,16.602,23.926,41.992,60.547,89.844,0
1578179342.677,30.762,28.809,30.762,64.453,88.867,0
1578179342.681,15.137,24.414,26.855,47.363,32.715,0
1578179342.685,-11.230,19.531,33.691,65.430,33.691,0
1578179342.687,8.789,20.508,37.598,62.500,109.375,0
1578179342.691,18.066,17.090,27.832,53.711,88.867,0
1578179342.695,34.180,13.184,22.461,67.383,37.598,0
1578179342.699,28.809,15.625,30.273,76.660,33.691,0
1578179342.703,-0.977,10.742,38.086,79.590,49.316,0
1578179342.707,8.789,13.184,39.062,61.523,84.961,0
1578179342.711,-11.230,13.672,32.715,50.293,64.453,0
1578179342.714,-12.207,17.090,37.109,37.109,35.156,0
1578179342.718,19.531,24.414,41.992,39.551,57.617,0
1578179342.722,23.926,23.438,37.109,59.082,96.191,0
1578179342.726,16.113,20.508,38.086,63.965,46.387,0
1578179342.730,5.859,12.207,43.457,65.918,-17.578,0
1578179342.732,17.090,9.277,48.828,60.059,-12.207,0
1578179342.736,44.434,16.602,49.316,66.406,45.410,0
1578179342.740,52.246,21.484,48.828,69.824,72.754,0
1578179342.744,25.879,18.555,41.992,57.617,-1.953,0
1578179342.748,8.301,20.020,40.527,69.336,-45.410,0
1578179342.752,32.715,20.996,38.574,64.453,56.152,0
1578179342.756,13.672,14.160,32.715,50.781,79.590,0
1578179342.759,-33.691,5.859,32.715,52.246,21.973,0
1578179342.763,-21.484,14.160,31.738,40.039,-18.555,0
1578179342.767,9.766,15.625,36.133,55.176,13.184,0
1578179342.771,17.090,13.672,39.062,67.383,62.988,0
1578179342.775,9.766,21.973,26.367,43.945,15.137,0
1578179342.792,15.137,23.438,19.043,46.875,-28.809,0
1578179342.796,33.203,20.020,31.250,62.500,26.855,0
1578179342.800,23.438,15.137,35.156,48.340,84.961,0
1578179342.804,15.137,16.602,30.762,34.180,45.898,0
1578179342.808,-1.953,19.043,20.020,41.504,-21.973,0
1578179342.812,-23.438,20.996,19.531,55.664,-11.719,0
1578179342.816,-3.906,22.461,33.203,39.551,50.781,0
1578179342.819,20.996,21.484,36.133,53.223,41.992,0
1578179342.823,8.301,13.184,31.250,69.824,-27.344,0
1578179342.827,30.273,10.254,31.738,55.664,-17.578,0
1578179342.831,73.242,18.066,39.062,38.574,85.449,0
1578179342.835,12.207,20.020,41.016,36.621,72.754,0
1578179342.837,-34.180,22.949,31.738,49.316,-20.020,0
1578179342.841,-4.883,24.414,28.320,53.711,-18.066,0
1578179342.845,25.879,24.414,38.086,53.223,30.273,0
1578179342.849,20.996,24.414,37.598,64.941,50.293,0
1578179342.853,3.906,21.484,29.785,60.059,17.090,0
1578179342.857,0.488,19.531,28.809,41.992,-24.902,0
1578179342.861,22.461,17.090,37.598,40.527,7.812,0
1578179342.864,43.457,12.695,42.480,56.152,62.500,0
1578179342.868,26.367,14.160,26.855,56.641,20.508,0
1578179342.872,2.441,18.555,18.066,62.500,-34.668,0
1578179342.876,5.859,18.555,33.203,90.820,-9.277,0
1578179342.880,44.434,20.508,32.227,73.242,31.738,0
1578179342.882,37.598,19.043,21.484,50.293,6.836,0
1578179342.886,-4.395,14.648,25.391,60.547,-38.574,0
1578179342.890,0.000,10.254,33.203,54.688,-13.184,0
1578179342.894,38.086,18.555,38.574,61.523,30.762,0
1578179342.898,57.617,20.996,42.969,64.453,41.504,0
1578179342.902,6.836,17.090,41.504,55.176,26.367,0
1578179342.906,-2.441,25.391,42.969,65.918,-28.809,0
1578179342.909,6.836,30.762,47.852,60.547,-10.254,0
1578179342.913,5.371,26.367,43.945,56.641,28.320,0
1578179342.917,2.930,21.484,41.992,67.383,-3.418,0
1578179342.921,9.766,27.832,39.062,62.988,-18.066,0
1578179342.925,33.691,32.227,31.250,46.875,31.738,0
1578179342.927,40.039,29.785,24.902,48.828,71.777,0
1578179342.931,28.809,26.855,26.855,73.730,63.965,0
1578179342.935,29.297,27.344,25.391,75.684,-4.395,0
1578179342.939,25.879,32.715,14.648,48.340,-39.551,0
1578179342.943,13.672,27.832,20.996,46.387,61.523,0
1578179342.947,2.930,21.484,21.973,61.523,111.328,0
1578179342.951,1.465,20.508,23.926,81.055,53.711,0
1578179342.954,20.996,19.531,24.414,81.543,3.906,0
1578179342.958,26.855,22.949,27.344,57.129,59.570,0
1578179342.962,11.230,21.973,30.762,41.016,88.379,0
1578179342.966,-3.418,23.926,19.043,39.062,5.859,0
1578179342.970,6.836,26.855,17.578,53.711,-7.812,0
1578179342.972,36.133,22.949,25.879,61.523,42.969,0
1578179342.976,28.809,20.508,27.344,52.246,75.195,0
1578179342.980,-1.953,19.043,18.066,62.012,14.160,0
1578179342.984,-11.719,13.184,18.555,57.129,5.859,0
1578179342.988,-3.906,10.254,29.297,53.711,50.781,0
1578179342.992,29.297,11.230,32.715,67.383,73.730,0
1578179342.996,4.883,9.766,25.879,51.758,70.312,0
1578179342.999,-20.508,10.254,9.277,33.203,-7.324,0
1578179343.003,12.695,11.719,16.602,42.969,-16.113,0
1578179343.007,13.184,8.789,28.320,46.875,38.574,0
1578179343.011,-9.766,4.395,20.996,52.734,36.133,0
1578179343.015,2.441,9.277,14.648,45.898,-15.137,0
1578179343.017,-1.465,13.672,19.043,42.480,-56.152,0
1578179343.021,6.836,10.254,26.855,61.035,-10.254,0
1578179343.025,7.324,10.742,27.344,64.453,39.551,0
1578179343.029,-3.418,20.508,25.391,55.664,-20.020,0
1578179343.033,2.930,17.090,23.438,61.523,-53.711,0
1578179343.037,20.508,9.766,28.809,54.688,19.531,0
1578179343.041,37.109,17.090,24.902,50.293,62.012,0
1578179343.044,9.766,22.461,19.531,62.012,21.973,0
1578179343.048,-16.602,16.113,26.367,64.453,17.090,0
1578179343.052,-7.812,14.160,30.273,53.711,28.809,0
1578179343.056,7.324,22.461,33.691,46.875,55.664,0
1578179343.060,0.488,21.484,33.691,39.551,62.012,0
1578179343.062,-15.625,24.902,30.762,51.270,-2.441,0
1578179343.066,10.742,27.344,29.297,62.500,-28.320,0
1578179343.070,39.551,30.273,30.762,59.570,62.500,0
1578179343.074,22.949,31.250,29.785,45.898,89.355,0
1578179343.078,-16.602,16.602,28.809,33.691,20.996,0
1578179343.082,-6.348,13.184,24.414,36.621,-10.742,0
1578179343.086,29.297,19.531,18.555,40.039,-24.902,0
1578179343.089,15.137,17.090,33.691,31.250,30.273,0
1578179343.093,-2.441,13.672,34.180,38.086,-2.930,0
1578179343.097,-8.789,17.090,21.973,54.688,-41.016,0
1578179343.101,-2.441,20.996,21.484,70.312,15.137,0
1578179343.105,39.551,21.973,25.879,62.500,51.270,0
1578179343.122,40.527,20.020,28.320,58.594,21.973,0
1578179343.126,13.184,18.555,20.508,71.289,-44.434,0
1578179343.130,0.000,17.090,16.602,50.293,-16.113,0
1578179343.134,26.855,19.531,24.414,28.809,53.223,0
1578179343.138,27.832,16.602,22.461,44.922,49.805,0
1578179343.142,-15.625,11.230,7.324,48.340,2.441,1
1578179343.146,14.160,10.254,7.812,53.711,-25.391,0
1578179343.149,55.664,14.648,23.926,74.219,27.832,0
1578179343.153,47.852,16.113,27.344,71.289,46.875,0
1578179343.157,9.766,14.648,13.672,58.105,-35.645,0
1578179343.161,3.418,22.461,13.672,66.895,-41.504,0
1578179343.165,39.062,28.320,20.020,65.430,17.578,0
1578179343.167,25.879,21.484,19.531,43.945,60.547,0
1578179343.171,-6.836,18.066,15.137,43.945,38.574,0
1578179343.175,4.395,24.902,16.602,62.500,-36.133,0
1578179343.179,32.227,23.926,26.367,53.711,-30.762,0
1578179343.183,28.320,16.602,30.762,41.016,60.547,0
1578179343.187,10.742,22.461,24.414,44.922,61.035,0
1578179343.191,13.672,27.344,20.508,57.617,-28.809,0
1578179343.194,20.020,23.438,25.391,77.148,-36.621,0
1578179343.198,32.227,17.090,22.949,79.102,50.781,0
1578179343.202,13.672,10.254,12.207,50.781,49.805,0
1578179343.206,5.371,11.230,19.043,35.156,-12.695,0
1578179343.210,35.156,20.996,23.926,51.270,-45.898,0
1578179343.212,27.344,20.508,18.555,63.965,0.488,0
1578179343.216,16.113,9.766,20.020,80.078,57.617,0
1578179343.220,2.930,10.254,16.113,70.312,5.371,0
1578179343.224,-2.930,22.949,8.301,51.758,-58.105,0
1578179343.228,27.832,28.809,11.230,44.922,2.441,0
1578179343.232,44.922,20.996,12.207,34.180,52.734,0
1578179343.236,38.086,15.625,14.648,51.758,33.691,0
1578179343.239,10.742,17.090,17.578,78.125,-21.484,0
1578179343.243,6.348,22.461,14.648,63.965,-13.672,0
1578179343.247,14.160,23.438,22.949,42.969,50.781,0
1578179343.251,12.207,15.625,35.156,45.898,46.875,0
1578179343.255,4.883,17.578,30.762,67.383,-13.184,0
1578179343.257,0.977,20.996,30.273,66.406,-34.668,0
1578179343.261,-1.465,23.926,37.109,27.832,52.246,0
1578179343.265,1.953,25.391,40.039,41.016,84.961,0
1578179343.269,-10.742,22.949,34.180,55.176,12.695,0
1578179343.273,-8.301,20.996,28.809,50.781,-21.973,0
1578179343.277,12.695,20.508,35.645,56.641,23.926,0
1578179343.281,10.254,15.137,45.410,54.199,94.727,0
1578179343.284,2.441,9.277,34.180,68.359,52.734,0
1578179343.288,1.953,16.602,19.043,64.941,-26.367,0
1578179343.292,22.949,21.973,22.949,49.316,-9.277,0
1578179343.296,25.391,20.020,25.391,59.570,69.336,0
1578179343.300,9.766,18.555,22.461,63.965,58.594,0
1578179343.302,-2.441,18.066,17.578,37.598,-15.137,0
1578179343.306,-8.789,20.020,25.879,38.574,18.066,0
1578179343.310,12.695,15.137,37.598,54.688,61.523,0
1578179343.314,13.672,8.301,31.250,61.035,16.602,0
1578179343.318,9.277,20.020,20.508,53.711,-25.391,0
1578179343.322,-0.977,25.879,14.160,55.664,-33.691,0
1578179343.326,-0.488,19.531,20.996,50.781,50.781,0
1578179343.329,17.090,14.160,14.648,40.527,82.031,0
1578179343.333,3.906,13.184,7.324,44.922,25.879,0
1578179343.337,-10.254,14.160,16.113,63.965,0.000,0
1578179343.341,27.832,10.254,14.160,71.289,-2.441,0
1578179343.345,41.992,6.348,15.137,67.383,42.480,0
1578179343.347,-6.348,7.324,14.160,53.223,35.645,0
1578179343.351,-13.672,9.277,13.184,49.316,-8.301,0
1578179343.355,5.859,12.695,19.043,60.059,-6.348,0
1578179343.359,14.648,12.695,22.949,56.152,65.918,0
1578179343.363,23.438,8.789,14.160,50.293,69.336,0
1578179343.367,12.695,11.230,4.883,47.363,-19.043,0
1578179343.371,-5.371,14.648,13.672,72.754,-4.883,0
1578179343.374,17.090,14.648,14.160,73.242,47.852,0
1578179343.378,24.902,19.531,13.672,41.992,47.363,0
1578179343.382,19.531,21.484,11.230,40.527,-25.391,0
1578179343.386,3.418,13.184,7.324,55.176,-55.176,0
1578179343.390,-26.367,14.648,14.648,54.688,13.672,0
1578179343.392,-0.977,20.508,25.879,44.922,76.660,0
1578179343.396,-2.930,10.742,24.414,58.594,29.785,0
1578179343.400,-13.184,7.324,15.625,67.871,-37.598,0
1578179343.404,14.160,20.996,23.926,55.176,-4.395,0
1578179343.408,25.879,23.926,29.785,52.734,83.008,0
1578179343.412,46.875,15.137,15.137,53.223,60.059,0
1578179343.416,38.086,14.648,5.371,57.617,10.742,0
1578179343.419,-11.719,11.230,11.719,40.039,32.227,0
1578179343.423,8.301,15.137,19.043,52.734,81.543,0
1578179343.427,4.883,24.414,15.137,58.594,87.891,0
1578179343.431,-16.602,12.695,8.789,41.016,36.621,0
1578179343.435,6.348,5.859,14.648,54.688,43.945,0
1578179343.437,10.742,15.137,22.949,63.965,82.520,0
1578179343.441,6.348,13.672,24.414,52.734,82.520,0
1578179343.445,3.418,8.789,17.090,51.758,41.016,0
1578179343.449,7.812,16.113,15.625,60.547,0.000,0
1578179343.453,8.789,19.043,21.973,57.617,38.086,0
1578179343.457,10.254,10.742,14.648,56.152,90.820,0
1578179343.461,26.367,16.602,3.418,34.668,52.246,0
1578179343.464,9.766,27.832,14.648,25.391,9.766,0
1578179343.468,-1.465,21.973,33.203,40.039,52.246,0
1578179343.472,3.418,15.137,29.785,62.988,98.145,0
1578179343.476,1.953,23.438,17.578,61.035,77.637,0
1578179343.480,6.836,29.297,13.672,58.105,11.230,0
1578179343.497,38.086,22.461,11.719,57.617,21.973,0
1578179343.501,43.457,14.648,8.789,44.922,99.609,0
1578179343.505,19.043,10.254,0.000,55.664,98.145,0
1578179343.509,16.602,12.695,-13.184,60.547,12.207,0
1578179343.513,25.391,24.902,-19.531,51.758,-22.949,0
1578179343.517,17.090,26.367,-21.973,50.781,29.297,0
1578179343.521,3.906,24.902,-14.648,52.734,42.480,0
1578179343.524,1.465,32.715,-9.277,49.805,-36.133,0
1578179343.528,-1.465,25.391,-13.672,59.570,-70.801,0
1578179343.532,17.578,27.344,-8.301,63.965,-5.371,0
1578179343.536,27.344,31.250,-2.930,59.082,43.945,0
1578179343.540,6.836,26.855,-5.859,78.613,0.977,0
1578179343.542,13.672,28.320,-10.254,65.918,-76.660,0
1578179343.546,44.434,25.879,-5.859,35.156,-28.809,0
1578179343.550,61.523,30.273,-1.953,33.203,60.547,0
1578179343.554,34.180,29.785,-7.812,56.641,18.066,0
1578179343.558,18.555,15.625,-12.207,61.523,-62.012,0
1578179343.562,6.348,11.719,-8.789,61.035,-22.949,0
1578179343.566,7.324,20.508,1.465,77.637,60.547,0
1578179343.569,18.066,26.367,4.395,49.316,60.059,0
1578179343.573,-12.207,21.973,-5.859,43.945,10.742,0
1578179343.577,-1.953,19.531,-19.531,45.410,-0.488,0
1578179343.581,28.809,20.020,-12.207,36.133,14.648,0
1578179343.585,22.949,17.578,0.000,32.227,41.016,0
1578179343.587,-6.348,15.625,-3.418,38.086,-9.277,0
1578179343.591,1.953,17.090,-3.906,54.688,-40.527,0
1578179343.595,35.156,24.414,4.883,59.082,-11.719,0
1578179343.599,37.109,23.438,10.742,49.805,49.316,0
1578179343.603,20.508,20.020,3.418,54.199,28.320,0
1578179343.607,22.949,26.855,3.418,64.941,-65.430,0
1578179343.611,31.738,30.273,16.113,57.617,-22.461,0
1578179343.614,19.531,25.879,24.902,56.641,60.059,0
1578179343.618,-11.719,22.461,21.484,39.062,70.801,0
1578179343.622,-11.719,31.250,19.043,35.645,34.668,0
1578179343.626,0.977,25.391,35.645,56.641,28.809,0
1578179343.630,19.531,23.438,43.457,73.730,72.266,0
1578179343.632,46.387,33.691,28.320,59.082,79.590,0
1578179343.636,31.250,33.203,21.973,52.734,-4.883,0
1578179343.640,11.719,34.180,32.227,70.312,-27.832,0
1578179343.644,20.020,29.297,33.691,61.523,20.020,0
1578179343.648,26.855,25.879,32.227,58.105,77.148,0
1578179343.652,35.645,27.832,32.227,60.547,67.383,0
1578179343.656,27.344,25.391,32.227,63.965,-0.488,0
1578179343.659,46.387,20.508,37.598,56.641,1.953,0
1578179343.663,49.805,16.602,40.039,56.152,35.645,0
1578179343.667,12.695,25.391,49.316,53.223,35.156,0
1578179343.671,-4.395,28.809,47.852,63.477,-0.488,0
1578179343.675,3.418,24.414,44.434,78.613,-5.859,0
1578179343.677,15.137,23.438,47.852,65.430,75.195,0
1578179343.681,7.812,22.461,40.527,54.199,69.336,0
1578179343.685,6.836,22.461,26.855,66.895,-24.414,0
1578179343.689,18.555,23.438,23.438,66.406,-13.672,0
1578179343.693,38.574,19.531,30.273,69.336,52.734,0
1578179343.697,42.480,18.066,27.344,80.078,22.461,0
1578179343.701,16.113,15.625,23.438,53.223,-34.668,0
1578179343.704,-0.488,9.277,18.066,25.391,1.465,0
1578179343.708,15.137,20.020,22.949,51.758,41.992,0
1578179343.712,44.922,31.738,32.715,74.707,44.434,0
1578179343.716,36.621,27.344,20.996,63.477,-23.438,0
1578179343.720,36.133,22.461,22.949,55.176,-100.586,0
1578179343.722,35.156,19.531,37.109,47.363,-34.668,0
1578179343.726,5.371,21.484,40.527,63.477,21.973,0
1578179343.730,6.836,22.461,40.527,54.688,20.020,0
1578179343.734,4.395,20.020,39.062,53.711,-17.090,0
1578179343.738,7.812,20.020,45.898,63.477,-18.555,0
1578179343.742,30.273,22.949,50.781,62.988,49.805,0
1578179343.746,41.992,25.391,42.969,69.336,32.715,0
1578179343.749,4.883,26.367,31.738,50.293,-39.551,0
1578179343.753,-19.531,24.902,42.969,40.527,-27.344,0
1578179343.757,18.066,20.020,57.617,54.688,54.688,0
1578179343.761,16.113,20.020,45.898,51.758,55.664,0
1578179343.765,-10.254,25.879,39.551,59.082,3.418,0
1578179343.767,2.930,24.414,44.434,65.918,-12.695,0
1578179343.771,27.832,24.414,46.875,50.781,17.578,0
1578179343.775,22.949,24.414,48.340,52.246,80.566,0
1578179343.779,4.395,17.090,47.363,59.082,43.457,0
1578179343.783,8.789,14.648,47.852,58.594,-20.020,0
1578179343.787,25.391,19.043,51.270,83.496,50.781,0
1578179343.791,16.602,17.090,42.969,67.871,83.984,0
1578179343.794,8.301,20.020,37.109,35.156,45.410,0
1578179343.798,24.414,27.832,46.387,40.527,-10.254,0
1578179343.802,12.695,20.508,51.758,46.875,-5.371,0
1578179343.806,2.441,17.090,53.223,55.664,65.430,0
1578179343.810,10.254,19.531,45.410,57.617,14.648,0
1578179343.812,11.719,19.043,41.016,52.734,-54.688,0
1578179343.816,8.789,17.578,44.922,67.383,-36.621,0
1578179343.820,31.738,14.160,50.293,88.379,40.039,0
1578179343.824,33.691,19.531,50.781,62.500,53.223,0
1578179343.828,11.230,20.508,40.527,48.828,-13.184,0
1578179343.832,25.879,15.625,33.203,61.523,-12.207,0
1578179343.836,31.738,18.066,33.691,45.898,54.199,0
1578179343.839,12.695,14.160,41.016,40.527,89.844,0
1578179343.843,0.000,3.906,42.969,45.898,48.828,0
1578179343.847,5.859,7.324,40.039,61.035,-39.062,0
1578179343.851,31.250,21.484,48.340,62.988,-28.809,0
1578179343.855,55.176,24.902,59.570,63.477,52.734,0
1578179343.872,36.133,20.508,59.082,61.523,48.828,0
1578179343.876,-1.953,12.695,51.270,54.199,-18.066,1
1578179343.880,0.488,9.766,50.781,61.035,-26.367,0
1578179343.884,45.410,23.438,58.105,76.660,66.406,0
1578179343.888,39.062,20.508,48.828,75.195,78.125,0
1578179343.892,-11.230,11.719,28.809,74.219,8.789,0
1578179343.896,12.207,20.508,36.133,63.477,-6.348,0
1578179343.899,40.527,25.879,55.176,36.621,15.625,0
1578179343.903,26.855,26.855,51.270,35.645,62.012,0
1578179343.907,19.043,20.020,41.992,56.152,33.203,0
1578179343.911,-0.977,14.160,39.551,60.547,-45.410,0
1578179343.915,20.020,21.973,41.992,53.711,6.348,0
1578179343.917,46.875,29.297,44.434,55.176,40.527,0
1578179343.921,15.137,27.344,42.969,49.316,5.371,0
1578179343.925,-10.254,24.414,44.434,43.457,-35.156,0
1578179343.929,11.230,29.297,53.223,50.293,1.465,0
1578179343.933,26.855,36.621,53.223,59.570,65.918,0
1578179343.937,6.836,35.645,41.992,57.129,41.504,0
1578179343.941,-14.160,30.273,39.551,50.293,-20.508,0
1578179343.944,2.930,23.438,48.828,56.152,-4.395,0
1578179343.948,18.066,28.320,42.480,72.266,54.688,0
1578179343.952,17.090,32.227,29.785,87.891,43.945,0
1578179343.956,39.551,30.762,36.133,74.219,-7.812,0
1578179343.960,32.227,20.996,39.062,45.410,-22.461,0
1578179343.962,6.348,17.090,39.551,60.547,29.297,0
1578179343.966,6.348,24.414,36.133,53.223,69.824,0
1578179343.970,-0.977,22.461,27.344,52.734,43.457,0
1578179343.974,-4.883,21.484,24.414,62.988,-42.969,0
1578179343.978,13.672,24.902,29.785,57.617,-7.324,0
1578179343.982,22.949,27.344,33.203,72.754,103.027,0
1578179343.986,28.809,25.879,28.809,80.078,58.105,0
1578179343.989,35.156,22.461,28.320,62.500,-30.273,0
1578179343.993,11.719,11.230,24.902,45.898,-9.766,0
1578179343.997,25.879,10.742,30.762,58.594,59.570,0
1578179344.001,36.133,20.996,40.039,68.359,51.270,0
1578179344.005,-9.766,21.484,33.203,54.688,5.371,0
1578179344.007,-22.949,16.602,32.227,62.012,-17.578,0
1578179344.011,-1.465,22.949,37.109,62.012,4.395,0
1578179344.015,12.207,29.297,34.668,63.965,39.551,0
1578179344.019,7.812,25.391,24.414,59.570,-5.859,0
1578179344.023,11.719,23.438,24.414,48.828,-51.270,0
1578179344.027,35.645,16.113,32.227,62.500,33.691,0
1578179344.031,30.273,14.648,30.273,59.570,67.871,0
1578179344.034,2.441,22.949,25.879,50.293,-11.719,0
1578179344.038,0.977,22.461,21.973,42.480,-42.969,0
1578179344.042,37.598,24.902,40.527,54.199,23.438,0
1578179344.046,32.227,25.391,52.734,83.984,69.336,0
1578179344.050,-0.977,24.902,35.645,60.059,49.805,0
1578179344.052,20.508,23.438,24.414,50.293,-23.438,0
1578179344.056,16.602,20.020,30.762,52.246,-38.574,0
1578179344.060,1.953,20.508,38.086,51.758,37.109,0
1578179344.064,-1.465,21.484,36.621,57.129,47.363,0
1578179344.068,-8.789,25.879,29.297,45.898,-45.410,0
1578179344.072,21.484,29.297,34.180,57.129,-26.855,0
1578179344.076,52.734,29.297,45.898,79.102,44.922,0
1578179344.079,29.785,31.250,39.062,70.801,53.711,0
1578179344.083,8.789,34.668,25.879,49.805,2.930,0
1578179344.087,4.395,23.438,36.133,50.781,-16.113,0
1578179344.091,12.207,26.367,42.480,46.875,29.297,0
1578179344.095,29.297,34.180,41.016,49.316,45.898,0
1578179344.097,7.324,27.344,33.691,42.969,27.832,0
1578179344.101,-9.766,24.902,33.691,56.641,-15.137,0
1578179344.105,11.719,28.320,41.016,68.848,26.855,0
1578179344.109,37.109,20.508,40.039,57.129,68.359,0
1578179344.113,9.277,14.648,41.504,47.852,58.594,0
1578179344.117,-17.090,26.855,37.598,41.504,16.113,0
1578179344.121,19.043,27.344,34.180,53.223,20.508,0
1578179344.124,38.086,26.855,33.203,51.270,43.457,0
1578179344.128,5.859,24.414,46.387,41.992,58.594,0
1578179344.132,-11.230,19.531,45.410,44.922,43.945,0
1578179344.136,-0.977,21.973,37.598,46.387,-1.465,0
1578179344.140,13.184,16.113,44.922,62.988,23.926,0
1578179344.142,24.902,21.973,53.711,59.570,87.402,0
1578179344.146,19.531,22.949,54.199,47.852,21.484,0
1578179344.150,2.930,17.090,43.457,62.500,-28.320,0
1578179344.154,-0.977,27.344,44.922,50.781,37.109,0
1578179344.158,11.719,31.250,49.805,49.805,60.059,0
1578179344.162,2.441,25.879,43.457,51.758,41.016,0
1578179344.166,1.953,23.438,30.762,51.758,8.789,0
1578179344.169,11.719,20.020,35.156,49.805,4.883,0
1578179344.173,-6.348,16.602,55.176,36.133,61.035,0
1578179344.177,-7.812,19.531,52.246,38.574,87.891,0
1578179344.181,-12.207,21.973,47.852,59.082,42.969,0
1578179344.185,-4.395,20.020,49.316,65.918,5.859,0
1578179344.187,23.926,23.926,51.270,50.293,42.480,0
1578179344.191,16.602,21.973,48.828,46.387,91.309,0
1578179344.195,7.324,20.020,37.109,40.527,29.785,0
1578179344.199,16.602,20.996,45.410,50.781,-3.418,0
1578179344.203,16.113,11.719,54.199,50.293,52.734,0
1578179344.207,-8.789,1.465,50.293,40.527,86.426,0
1578179344.211,-22.461,19.043,41.992,45.410,41.992,0
1578179344.214,1.465,32.227,49.316,41.504,-14.648,0
1578179344.218,21.484,22.949,65.918,48.828,-5.371,0
1578179344.222,8.789,10.742,65.430,45.410,62.500,0
1578179344.226,-6.348,16.113,54.688,41.016,39.551,0
1578179344.230,-15.137,25.391,52.246,48.340,-27.832,0
1578179344.247,13.672,17.578,53.223,42.480,-7.324,0
1578179344.251,43.945,20.508,52.246,45.410,36.621,0
1578179344.255,9.277,24.414,44.922,56.152,12.695,0
1578179344.259,-11.230,16.113,43.457,50.781,-18.066,0
1578179344.263,4.883,21.484,50.781,49.805,-12.207,0
1578179344.267,20.996,25.879,47.852,43.457,14.160,0
1578179344.271,26.367,23.926,50.781,51.758,62.988,0
1578179344.274,-4.883,32.227,54.199,57.129,17.090,0
1578179344.278,6.836,37.598,45.410,43.945,-60.547,0
1578179344.282,29.297,32.715,41.016,57.129,-0.488,0
1578179344.286,37.598,30.762,39.062,73.242,62.988,0
1578179344.290,49.805,33.691,49.805,82.520,42.969,0
1578179344.292,7.324,25.879,62.988,58.105,-27.344,0
1578179344.296,-13.184,20.020,73.242,24.414,1.465,0
1578179344.300,2.441,20.508,84.961,41.016,54.199,0
1578179344.304,14.160,20.020,83.496,67.383,26.367,0
1578179344.308,26.367,16.113,91.309,74.219,4.883,0
1578179344.312,20.996,6.836,104.492,76.660,9.766,0
1578179344.316,27.344,2.441,115.723,92.773,46.387,0
1578179344.319,23.438,7.812,117.676,87.891,80.078,0
1578179344.323,11.230,5.859,103.516,75.684,17.090,0
1578179344.327,29.297,-4.395,93.262,74.707,-21.484,0
1578179344.331,34.180,0.488,102.051,75.195,30.762,0
1578179344.335,29.297,9.277,95.215,86.426,44.922,0
1578179344.337,27.832,11.719,63.965,102.539,-21.484,0
1578179344.341,19.043,15.137,43.945,89.844,-49.316,0
1578179344.345,48.828,15.137,40.039,80.078,9.277,0
1578179344.349,54.688,19.043,42.480,96.191,57.617,0
1578179344.353,6.348,22.461,35.645,100.586,38.574,0
1578179344.357,10.254,18.555,22.949,98.633,0.000,0
1578179344.361,42.969,11.230,19.531,79.590,20.020,0
1578179344.364,31.738,12.207,29.785,82.520,68.848,0
1578179344.368,11.230,15.137,18.555,70.801,60.547,0
1578179344.372,3.418,12.695,3.906,54.199,19.043,0
1578179344.376,24.414,7.324,12.695,71.289,-19.531,0
1578179344.380,62.012,7.812,16.602,67.383,65.918,0
1578179344.382,45.898,7.812,12.695,75.195,107.422,0
1578179344.386,-14.160,3.418,9.766,87.402,14.648,0
1578179344.390,-2.441,10.254,17.090,67.383,-24.902,0
1578179344.394,36.133,17.090,32.227,92.285,29.297,0
1578179344.398,40.039,21.973,36.621,107.422,91.309,0
1578179344.402,25.391,22.461,23.926,61.523,24.902,0
1578179344.406,13.184,15.625,20.996,49.805,-47.852,0
1578179344.409,12.695,15.137,31.738,46.875,7.324,0
1578179344.413,20.508,17.090,33.691,60.547,75.684,0
1578179344.417,15.137,13.184,35.156,81.543,33.691,0
1578179344.421,0.977,17.090,26.855,54.199,-26.367,0
1578179344.425,29.297,25.879,22.949,51.758,-11.230,0
1578179344.427,37.109,25.879,33.203,66.895,50.293,0
1578179344.431,8.301,25.879,40.039,58.594,61.035,0
1578179344.435,-6.836,25.391,29.297,54.199,-19.531,0
1578179344.439,23.438,24.902,28.809,63.965,-29.297,0
1578179344.443,63.965,27.344,40.039,75.684,75.684,0
1578179344.447,36.621,27.832,39.062,82.031,102.539,0
1578179344.451,-12.695,21.973,38.086,85.938,20.508,0
1578179344.454,2.441,23.926,39.551,72.266,12.207,0
1578179344.458,22.949,31.250,46.387,67.383,93.750,0
1578179344.462,21.484,33.203,50.781,51.270,132.324,0
1578179344.466,14.648,34.668,37.598,40.039,63.965,0
1578179344.470,6.836,32.715,33.691,49.805,13.672,0
1578179344.472,22.461,33.203,40.039,51.758,54.199,0
1578179344.476,39.062,36.133,44.922,57.617,75.684,0
1578179344.480,29.785,33.203,39.551,70.312,75.684,0
1578179344.484,40.039,29.297,32.715,68.848,39.551,0
1578179344.488,35.156,25.879,37.109,64.453,25.391,0
1578179344.492,15.137,23.926,40.039,67.383,100.586,0
1578179344.496,5.859,21.973,39.062,69.824,107.422,0
1578179344.499,-20.508,23.926,33.203,48.828,23.926,0
1578179344.503,4.395,20.996,41.016,59.082,-4.395,0
1578179344.507,60.059,24.414,53.711,104.004,62.988,0
1578179344.511,51.270,41.504,33.203,80.566,77.148,0
1578179344.515,-2.441,43.457,7.812,21.973,30.273,0
1578179344.517,-3.418,40.527,3.906,-0.977,18.066,0
1578179344.521,19.043,40.527,3.906,26.855,53.223,0
1578179344.525,10.254,42.480,-1.953,58.594,69.824,0
1578179344.529,-5.859,50.781,-14.160,29.297,82.031,0
1578179344.533,-11.230,52.246,-21.973,11.230,9.277,0
1578179344.537,13.184,54.199,-20.020,31.738,-2.930,0
1578179344.541,16.113,54.688,-30.273,25.391,106.445,0
1578179344.544,-9.277,45.898,-42.969,20.996,93.262,0
1578179344.548,-11.719,43.945,-37.598,28.320,0.000,0
1578179344.552,10.254,41.504,-36.133,37.109,-45.410,0
1578179344.556,24.414,29.785,-25.879,68.848,22.949,0
1578179344.560,19.531,26.367,-19.043,65.918,35.645,0
1578179344.562,0.488,30.762,-23.438,24.902,-57.129,0
1578179344.566,-13.184,31.250,-13.184,15.137,-60.059,0
1578179344.570,12.695,28.809,-1.465,28.320,17.578,0
1578179344.574,30.762,29.297,4.395,50.293,63.965,0
1578179344.578,2.441,33.691,4.883,65.430,35.645,0
1578179344.582,-8.301,31.738,4.395,45.410,-3.418,0
1578179344.586,26.855,20.996,11.719,23.438,51.758,0
1578179344.589,24.414,24.414,27.344,34.668,88.379,0
1578179344.593,14.648,35.645,26.367,49.805,28.809,0
1578179344.597,12.207,34.180,14.648,53.711,-24.902,0
1578179344.601,17.578,38.086,21.973,67.871,5.859,0
1578179344.605,36.621,35.645,29.297,66.406,61.523,0
1578179344.622,2.441,26.855,21.484,61.035,64.941,0
1578179344.626,-3.906,33.203,6.836,41.016,32.715,0
1578179344.630,7.812,34.180,7.324,59.082,3.906,0
1578179344.634,4.883,28.320,20.996,70.801,46.875,0
1578179344.638,-8.301,29.785,18.066,42.969,96.191,0
1578179344.642,-21.973,30.273,0.000,48.828,-5.859,0
1578179344.646,22.949,31.738,5.859,46.875,-67.871,0
1578179344.649,28.320,25.879,28.320,32.715,22.949,1
1578179344.653,-6.836,22.949,27.832,33.691,79.590,0
1578179344.657,-18.066,32.715,15.625,34.180,36.133,0
1578179344.661,-11.230,34.668,21.484,45.410,-7.324,0
1578179344.665,7.324,33.203,32.715,47.363,15.137,0
1578179344.667,17.578,27.344,21.484,43.945,49.316,0
1578179344.671,11.230,25.879,11.719,76.172,64.453,0
1578179344.675,-6.348,32.715,11.230,79.102,9.766,0
1578179344.679,-4.395,32.715,12.207,55.176,-19.043,0
1578179344.683,-0.488,32.715,18.555,44.922,67.871,0
1578179344.687,14.648,38.086,16.602,45.898,90.820,0
1578179344.691,4.883,33.691,8.789,53.223,13.184,0
1578179344.694,3.418,30.273,12.207,35.645,-21.484,0
1578179344.698,37.598,41.016,15.625,37.598,40.527,0
1578179344.702,31.250,41.016,6.836,50.781,55.664,0
1578179344.706,-25.879,34.180,5.859,59.570,20.508,0
1578179344.710,-14.648,31.250,19.531,67.383,-1.465,0
1578179344.712,20.508,31.250,28.809,62.988,8.789,0
1578179344.716,34.180,33.203,35.156,68.848,62.988,0
1578179344.720,38.574,37.598,40.039,76.172,42.480,0
1578179344.724,13.672,37.598,39.062,64.941,-31.738,0
1578179344.728,5.371,36.621,34.668,47.363,-25.391,0
1578179344.732,21.973,39.062,37.109,54.199,65.918,0
1578179344.736,20.508,32.227,33.691,58.105,83.984,0
1578179344.739,18.066,28.320,23.438,41.992,2.441,0
1578179344.743,38.574,27.344,18.555,49.316,-0.488,0
1578179344.747,18.555,25.391,22.949,44.434,77.148,0
1578179344.751,-6.348,26.855,32.715,39.551,100.586,0
1578179344.755,-0.977,33.691,25.879,49.805,33.691,0
1578179344.757,8.301,34.180,22.949,54.688,-7.812,0
1578179344.761,8.301,26.855,28.320,55.176,43.457,0
1578179344.765,15.137,32.227,31.250,74.707,86.426,0
1578179344.769,26.367,34.668,19.043,64.941,17.578,0
1578179344.773,20.508,24.414,20.020,48.340,-36.133,0
1578179344.777,16.602,24.414,38.086,55.664,60.547,0
1578179344.781,23.926,26.367,42.969,50.293,114.258,0
1578179344.784,-6.836,25.879,39.062,65.918,43.457,0
1578179344.788,-25.879,26.367,29.297,51.270,-4.883,0
1578179344.792,0.488,26.367,35.156,21.973,30.273,0
1578179344.796,19.043,24.414,45.898,37.109,73.242,0
1578179344.800,-5.371,21.973,39.551,41.992,60.547,0
1578179344.802,-29.297,20.996,38.086,49.805,2.441,0
1578179344.806,-6.348,21.484,50.781,59.570,10.254,0
1578179344.810,21.973,21.973,51.270,63.477,25.879,0
1578179344.814,26.367,25.391,43.945,63.965,5.371,0
1578179344.818,-3.418,18.066,40.527,56.152,-33.691,0
1578179344.822,-1.465,13.672,36.133,48.828,-42.480,0
1578179344.826,25.391,19.043,43.945,49.316,14.160,0
1578179344.829,24.902,17.090,40.039,47.363,27.344,0
1578179344.833,6.836,20.508,35.645,41.504,0.488,0
1578179344.837,0.000,23.438,48.828,55.176,-21.484,0
1578179344.841,16.602,19.043,52.246,65.430,5.859,0
1578179344.845,25.879,19.043,51.270,58.105,102.051,0
1578179344.847,33.203,19.043,47.852,49.316,108.887,0
1578179344.851,35.645,19.043,40.527,54.199,27.832,0
1578179344.855,19.531,16.113,36.133,62.012,17.090,0
1578179344.859,5.371,16.113,38.574,64.941,63.965,0
1578179344.863,0.000,15.137,36.621,52.734,56.152,0
1578179344.867,-14.648,12.695,29.785,53.711,10.254,0
1578179344.871,2.441,18.555,30.762,59.082,21.484,0
1578179344.874,34.180,20.508,30.273,50.293,64.941,0
1578179344.878,28.809,19.531,36.621,53.711,79.102,0
1578179344.882,11.719,20.508,39.062,47.363,14.160,0
1578179344.886,0.488,18.066,31.738,57.617,6.836,0
1578179344.890,-0.977,17.578,33.691,62.988,66.406,0
1578179344.892,-4.395,25.879,38.574,79.590,69.336,0
1578179344.896,4.883,27.344,35.156,88.379,35.645,0
1578179344.900,5.859,22.949,30.762,42.480,-9.766,0
1578179344.904,9.277,20.996,38.574,33.691,23.926,0
1578179344.908,17.578,22.949,41.504,51.758,98.145,0
1578179344.912,24.902,26.855,37.598,56.641,62.988,0
1578179344.916,18.555,23.926,29.785,48.828,-17.578,0
1578179344.919,19.043,22.949,35.645,40.039,1.953,0
1578179344.923,43.457,28.320,50.293,51.758,47.363,0
1578179344.927,21.973,28.320,46.387,56.641,39.551,0
1578179344.931,31.738,30.762,41.504,60.059,-25.879,0
1578179344.935,27.832,32.715,45.898,62.012,-34.668,0
1578179344.937,-3.906,31.250,49.316,64.941,17.578,0
1578179344.941,22.949,32.715,45.898,66.406,24.414,0
1578179344.945,21.484,33.203,39.551,53.711,4.395,0
1578179344.949,24.414,33.203,39.062,62.012,-2.441,0
1578179344.953,36.133,31.250,47.852,54.688,36.133,0
1578179344.957,18.066,30.273,48.340,44.434,95.703,0
1578179344.961,-0.488,28.320,34.668,59.082,72.266,0
1578179344.964,0.977,28.320,34.180,47.852,-11.719,0
1578179344.968,20.996,28.320,48.828,56.152,5.859,0
1578179344.972,41.992,26.367,45.410,72.754,83.008,0
1578179344.976,28.809,23.438,40.039,59.082,62.500,0
1578179344.980,3.418,28.809,38.086,72.266,-2.930,0
1578179344.997,34.180,31.738,40.527,86.426,4.883,0
1578179345.001,38.086,20.508,46.387,73.730,57.617,0
1578179345.005,20.020,22.949,42.969,72.266,63.477,0
1578179345.009,10.742,30.762,37.598,62.988,-18.066,0
1578179345.013,-9.277,27.832,38.574,56.152,-50.781,0
1578179345.017,19.531,22.949,38.574,63.965,11.230,0
1578179345.021,37.598,25.879,36.621,45.898,17.090,0
1578179345.024,3.906,25.391,38.574,48.340,-40.527,0
1578179345.028,16.602,20.996,40.527,79.590,-50.293,0
1578179345.032,70.312,25.879,44.922,77.637,11.719,0
1578179345.036,55.664,28.809,45.898,57.129,71.289,0
1578179345.040,-16.602,15.137,42.480,55.664,31.738,0
1578179345.042,-20.020,21.484,41.992,73.730,-59.570,0
1578179345.046,13.184,34.180,46.875,83.496,-18.066,0
1578179345.050,38.574,28.320,51.270,62.500,79.102,0
1578179345.054,36.133,25.879,46.875,55.176,68.359,0
1578179345.058,-2.441,31.250,37.109,58.594,-2.930,0
1578179345.062,1.953,25.391,40.527,55.176,-32.227,0
1578179345.066,34.668,13.672,55.176,54.199,35.156,0
1578179345.069,24.902,20.996,52.246,60.059,74.219,0
1578179345.073,-4.395,26.855,36.621,59.082,-22.949,0
1578179345.077,1.465,21.973,25.879,55.664,-83.496,0
1578179345.081,23.438,20.508,41.504,64.453,1.465,0
1578179345.085,20.020,25.879,49.805,71.777,78.125,0
1578179345.087,-1.465,25.879,31.738,47.363,20.996,0
1578179345.091,10.742,23.438,25.879,39.551,-62.012,0
1578179345.095,33.203,28.809,44.434,64.453,-0.488,0
1578179345.099,50.293,22.461,43.457,64.453,63.477,0
1578179345.103,32.715,10.254,31.250,59.082,14.648,0
1578179345.107,-1.465,16.602,25.391,52.246,-22.461,0
1578179345.111,-4.883,26.367,29.297,45.410,7.324,0
1578179345.114,12.207,20.508,39.062,53.223,57.129,0
1578179345.118,22.461,12.695,26.367,49.316,44.922,0
1578179345.122,2.441,15.137,21.973,45.898,-4.395,0
1578179345.126,12.207,15.625,38.574,63.477,6.836,0
1578179345.130,44.922,10.254,41.504,65.430,36.133,0
1578179345.132,42.969,13.184,35.645,66.406,43.457,0
1578179345.136,21.973,21.484,26.855,82.031,-11.719,0
1578179345.140,18.555,21.484,29.785,78.125,-37.598,0
1578179345.144,13.184,17.578,38.574,74.219,52.734,0
1578179345.148,37.598,20.020,33.691,64.453,104.004,0
1578179345.152,25.391,25.391,30.273,62.012,85.938,0
1578179345.156,-6.836,26.855,35.156,50.293,44.434,0
1578179345.159,18.555,24.902,36.621,45.898,34.668,0
1578179345.163,41.016,27.344,30.273,53.223,85.449,0
1578179345.167,4.883,24.414,33.691,38.574,92.773,0
1578179345.171,-18.066,20.996,33.691,47.363,2.441,0
1578179345.175,6.348,20.508,29.297,56.152,4.883,0
1578179345.177,17.578,16.113,32.227,50.293,56.152,0
1578179345.181,11.230,26.367,30.762,46.387,49.316,0
1578179345.185,4.883,32.715,20.020,69.824,0.977,0
1578179345.189,13.184,22.461,19.043,60.547,-2.930,0
1578179345.193,38.574,25.879,27.832,50.781,67.871,0
1578179345.197,45.410,33.691,24.414,60.547,69.824,0
1578179345.201,0.977,29.297,24.902,59.570,-9.766,0
1578179345.204,4.883,20.996,24.414,56.152,-33.691,0
1578179345.208,44.434,22.949,25.879,46.875,9.766,0
1578179345.212,44.434,31.738,35.645,59.570,56.641,0
1578179345.216,20.020,31.250,27.344,86.914,23.926,0
1578179345.220,9.277,32.227,23.438,99.121,-49.316,0
1578179345.222,31.738,30.762,35.156,79.590,-9.766,0
1578179345.226,44.922,15.625,40.527,72.266,81.055,0
1578179345.230,36.621,17.578,26.367,68.359,34.180,0
1578179345.234,16.602,25.879,23.438,57.129,-29.297,0
1578179345.238,14.160,26.367,29.785,66.406,-13.184,0
1578179345.242,32.715,24.414,30.762,86.426,40.039,0
1578179345.246,24.902,24.414,31.738,58.105,69.824,0
1578179345.249,-0.977,24.414,22.461,41.016,34.180,0
1578179345.253,13.184,23.438,23.438,64.453,-17.090,0
1578179345.257,49.805,30.273,37.598,66.895,18.555,0
1578179345.261,48.340,24.902,31.738,67.871,55.176,0
1578179345.265,-3.418,22.949,23.926,62.500,-0.488,0
1578179345.267,-9.277,33.691,28.320,57.617,-46.387,0
1578179345.271,7.812,30.762,31.250,49.805,-21.973,0
1578179345.275,9.277,30.762,21.484,42.969,53.223,0
1578179345.279,3.418,38.086,11.719,49.316,38.086,0
1578179345.283,-0.488,42.480,8.301,53.711,-34.668,0
1578179345.287,11.719,42.480,1.953,44.434,-11.719,0
1578179345.291,12.207,41.504,-7.324,59.082,54.688,0
1578179345.294,11.719,38.574,-16.113,74.219,70.801,0
1578179345.298,18.066,35.645,-4.883,42.969,29.297,0
1578179345.302,-1.465,31.250,5.859,28.809,15.137,0
1578179345.306,19.531,33.203,7.324,26.367,63.477,0
1578179345.310,43.945,33.203,4.883,32.227,73.242,0
1578179345.312,16.113,31.250,8.789,51.270,20.996,0
1578179345.316,41.504,29.785,8.789,51.270,-15.137,0
1578179345.320,47.363,25.879,11.719,83.496,24.414,0
1578179345.324,-5.859,27.832,17.090,92.285,68.848,0
1578179345.328,-20.996,26.855,7.324,50.293,25.879,0
1578179345.332,-7.324,26.367,-0.977,41.992,-44.434,0
1578179345.336,-3.418,23.926,0.488,40.527,-9.766,0
1578179345.339,5.371,22.949,12.695,41.992,64.453,0
1578179345.343,9.277,26.367,18.555,56.641,51.758,0
1578179345.347,2.930,25.391,7.812,45.410,-33.691,0
1578179345.351,29.297,25.879,8.789,38.086,-41.992,0
1578179345.355,52.734,26.367,22.461,42.969,59.082,0
1578179345.372,20.020,22.461,25.879,44.922,65.918,0
1578179345.376,-16.602,25.391,16.113,65.430,5.859,0
1578179345.380,7.812,23.926,22.461,83.496,-9.277,0
1578179345.384,24.414,10.742,32.227,62.012,40.527,0
1578179345.388,19.043,11.719,26.367,36.621,83.984,0
1578179345.392,9.766,25.391,12.207,39.551,22.461,0
1578179345.396,4.395,34.180,12.207,65.430,-36.621,0
1578179345.399,27.344,32.227,26.855,59.082,10.254,0
1578179345.403,53.711,23.438,26.855,50.293,62.012,0
1578179345.407,13.672,17.090,22.949,62.012,28.320,0
1578179345.411,-10.254,13.672,27.832,65.918,-18.066,0
1578179345.415,18.555,24.414,38.574,69.824,5.859,0
1578179345.417,53.223,37.598,41.504,59.570,76.172,0
1578179345.421,20.020,38.086,35.645,59.082,82.520,0
1578179345.425,-9.277,31.250,30.762,60.547,6.348,0
1578179345.429,28.320,29.785,35.645,64.453,4.883,0
1578179345.433,49.805,32.715,42.969,72.754,85.938,0
1578179345.437,33.203,28.320,28.809,66.406,94.238,0
1578179345.441,2.930,20.020,24.414,61.523,35.645,0
1578179345.444,3.418,16.602,37.109,67.871,27.832,0
1578179345.448,25.391,23.926,39.551,65.918,55.664,0
1578179345.452,26.367,28.320,37.109,67.871,102.051,0
1578179345.456,14.648,23.438,37.109,66.406,29.297,0
1578179345.460,20.508,20.020,45.898,69.336,-50.781,0
1578179345.462,55.176,25.391,47.852,76.660,20.508,0
1578179345.466,43.945,28.809,50.293,66.895,93.750,0
1578179345.470,3.906,26.367,46.387,45.898,66.895,0
1578179345.474,-19.531,22.949,37.598,63.477,-30.273,0
1578179345.478,2.930,23.926,41.504,68.359,-25.879,0
1578179345.482,37.598,22.949,42.969,43.457,38.086,0
1578179345.486,11.230,21.484,41.016,55.176,1.953,0
1578179345.489,-17.090,30.273,42.969,51.758,-17.090,0
1578179345.493,-6.836,31.738,29.785,33.203,-29.297,0
1578179345.497,30.762,30.273,33.691,45.410,1.953,0
1578179345.501,24.414,32.227,48.828,69.824,66.406,0
1578179345.505,16.602,29.785,36.133,76.660,7.324,0
1578179345.507,21.484,33.203,29.297,63.477,-28.320,0
1578179345.511,23.438,28.320,32.227,59.082,64.453,0
1578179345.515,43.457,22.949,26.855,66.406,72.754,0
1578179345.519,20.996,28.320,22.461,68.359,5.371,1
1578179345.523,-15.625,25.391,20.508,71.289,-36.621,0
1578179345.527,-5.371,24.902,23.438,67.383,-10.254,0
1578179345.531,25.879,25.391,32.227,59.570,89.355,0
1578179345.534,35.645,17.578,24.902,67.871,56.152,0
1578179345.538,7.812,22.949,8.789,54.688,-59.082,0
1578179345.542,-0.488,30.273,26.855,47.363,-21.973,0
1578179345.546,36.621,32.715,39.062,59.082,53.711,0
1578179345.550,32.227,25.391,27.832,72.266,31.250,0
1578179345.552,7.324,23.438,24.414,62.988,-16.113,0
1578179345.556,12.207,32.715,26.367,37.598,-36.621,0
1578179345.560,22.461,28.809,34.668,58.594,47.363,0
1578179345.564,39.551,17.578,31.738,65.918,86.426,0
1578179345.568,13.672,19.531,20.508,46.387,-8.301,0
1578179345.572,-22.461,27.344,22.949,58.105,-41.016,0
1578179345.576,-1.465,25.879,35.645,91.309,36.621,0
1578179345.579,7.812,20.020,27.344,62.988,56.641,0
1578179345.583,-6.836,14.648,19.043,31.738,-8.301,0
1578179345.587,10.254,16.602,23.926,51.758,-60.547,0
1578179345.591,44.922,22.461,23.438,48.828,-19.531,0
1578179345.595,31.250,20.508,23.926,45.898,62.988,0
1578179345.597,6.348,14.648,20.996,51.758,48.340,0
1578179345.601,-11.719,14.160,17.578,53.223,-38.086,0
1578179345.605,-3.418,14.648,16.113,57.617,-40.039,0
1578179345.609,8.301,17.090,18.555,51.758,48.828,0
1578179345.613,-5.371,19.531,17.578,52.246,51.270,0
1578179345.617,-4.883,19.531,9.277,57.617,-20.020,0
1578179345.621,1.953,14.648,11.719,41.504,-33.691,0
1578179345.624,17.578,9.277,20.996,38.086,35.156,0
1578179345.628,13.672,17.578,20.020,42.969,59.570,0
1578179345.632,-0.977,19.531,16.602,46.875,-3.418,0
1578179345.636,1.953,14.160,16.113,53.223,-16.602,0
1578179345.640,30.762,17.578,22.949,62.988,55.176,0
1578179345.642,47.363,20.996,34.180,49.805,103.027,0
1578179345.646,15.137,20.508,31.250,37.598,46.875,0
1578179345.650,13.672,17.090,21.973,48.340,-27.832,0
1578179345.654,8.301,13.184,25.391,48.828,-0.977,0
1578179345.658,15.137,16.602,31.250,39.551,78.613,0
1578179345.662,13.672,13.672,20.996,57.129,78.125,0
1578179345.666,-24.414,9.766,10.254,66.895,-4.395,0
1578179345.669,-15.625,10.742,17.090,52.246,-11.719,0
1578179345.673,9.277,15.137,26.367,55.664,50.781,0
1578179345.677,15.137,21.973,21.484,59.082,67.871,0
1578179345.681,16.113,18.555,13.672,67.871,4.883,0
1578179345.685,25.391,15.625,10.742,72.754,-37.109,0
1578179345.687,32.227,23.438,17.578,55.176,42.480,0
1578179345.691,28.320,23.438,17.578,53.711,64.453,0
1578179345.695,12.207,20.996,10.254,59.082,-5.371,0
1578179345.699,-4.883,16.602,9.766,52.734,-28.809,0
1578179345.703,6.836,12.695,14.648,72.266,20.996,0
1578179345.707,14.160,10.254,14.160,92.773,88.379,0
1578179345.711,24.414,20.508,-0.977,55.664,34.180,0
1578179345.714,41.016,27.832,5.859,50.293,-33.691,0
1578179345.718,40.527,27.832,20.996,62.988,-8.301,0
1578179345.722,27.344,31.738,17.578,58.594,52.734,0
1578179345.726,0.488,25.391,9.766,60.059,54.199,0
1578179345.730,-1.953,23.438,8.301,59.570,-10.742,0
1578179345.747,34.180,31.250,18.555,68.848,5.859,0
1578179345.751,33.691,29.785,26.367,66.895,53.711,0
1578179345.755,18.555,25.391,23.438,56.641,71.777,0
1578179345.759,7.324,26.367,20.508,72.754,5.859,0
1578179345.763,-20.996,21.484,18.066,57.129,-55.176,0
1578179345.767,-14.648,22.949,16.602,32.715,10.254,0
1578179345.771,4.395,28.809,19.531,29.785,53.711,0
1578179345.774,5.371,31.250,20.508,41.992,13.184,0
1578179345.778,13.672,31.250,20.996,57.129,-27.832,0
1578179345.782,37.598,29.297,25.879,55.176,-11.719,0
1578179345.786,7.812,30.762,31.250,46.875,75.195,0
1578179345.790,-4.883,18.555,26.855,51.270,57.129,0
1578179345.792,5.859,14.160,23.438,60.547,-6.348,0
1578179345.796,11.719,24.902,33.203,51.270,49.805,0
1578179345.800,33.203,29.297,40.527,54.199,113.281,0
1578179345.804,21.973,30.273,35.645,47.852,74.707,0
1578179345.808,1.953,24.902,33.203,55.664,4.883,0
1578179345.812,5.859,21.484,34.180,65.918,19.531,0
1578179345.816,13.184,25.879,41.016,48.828,75.195,0
1578179345.819,13.672,23.438,45.410,45.410,78.125,0
1578179345.823,8.301,15.137,38.086,42.969,25.391,0
1578179345.827,38.574,19.531,25.879,46.875,-14.648,0
1578179345.831,64.453,24.902,31.250,68.848,52.734,0
1578179345.835,9.277,21.484,37.109,71.777,86.426,0
1578179345.837,-39.062,20.996,32.715,52.246,41.016,0
1578179345.841,-12.695,20.996,37.598,53.711,-7.812,0
1578179345.845,40.527,19.531,41.016,55.176,-13.672,0
1578179345.849,35.156,13.184,41.504,60.547,77.637,0
1578179345.853,8.789,14.160,34.180,73.242,78.125,0
1578179345.857,-3.418,20.020,31.250,72.754,4.395,0
1578179345.861,11.230,20.996,42.969,47.852,19.043,0
1578179345.864,45.410,27.344,55.176,46.387,71.777,0
1578179345.868,3.418,32.227,48.340,49.316,72.266,0
1578179345.872,-6.836,23.438,46.387,31.250,-7.812,0
1578179345.876,11.719,14.160,64.453,48.340,-23.926,0
1578179345.880,18.555,25.879,74.219,66.895,33.691,0
1578179345.882,23.438,29.785,79.102,65.430,40.039,0
1578179345.886,2.930,23.438,78.125,46.387,1.465,0
1578179345.890,1.953,22.949,73.730,37.598,-18.555,0
1578179345.894,16.113,24.902,76.660,62.500,36.133,0
1578179345.898,14.160,25.879,71.289,70.801,91.797,0
1578179345.902,7.812,27.344,57.129,54.688,46.875,0
1578179345.906,-2.930,26.855,60.059,36.621,-17.578,0
1578179345.909,0.488,29.297,68.848,33.691,-0.488,0
1578179345.913,15.625,22.461,60.059,45.898,64.453,0
1578179345.917,5.371,11.719,55.176,43.457,53.711,0
1578179345.921,4.883,20.508,56.641,42.480,-0.977,0
1578179345.925,15.137,26.367,54.688,55.176,17.090,0
1578179345.927,28.320,21.973,59.082,74.219,79.102,0
1578179345.931,28.809,25.879,61.035,79.102,104.492,0
1578179345.935,13.672,27.344,52.734,64.941,10.742,0
1578179345.939,36.133,23.926,47.363,52.246,-52.734,0
1578179345.943,32.227,27.832,55.176,49.805,54.199,0
1578179345.947,2.441,31.738,54.199,49.805,120.117,0
1578179345.951,-25.391,23.926,43.457,49.805,67.871,0
1578179345.954,-7.812,17.090,33.691,51.758,-7.324,0
1578179345.958,24.414,23.438,34.180,58.105,-9.766,0
1578179345.962,24.414,23.438,41.016,79.590,31.738,0
1578179345.966,8.789,18.555,29.297,83.008,7.324,0
1578179345.970,21.484,19.043,23.926,47.363,-33.203,0
1578179345.972,47.363,15.137,21.973,35.645,0.488,0
1578179345.976,17.578,18.555,22.949,61.523,54.199,0
1578179345.980,5.371,25.391,17.578,73.242,41.016,0
1578179345.984,13.184,17.090,10.742,67.383,-26.855,0
1578179345.988,21.973,22.461,22.461,67.871,-43.945,0
1578179345.992,48.828,35.156,32.227,88.867,33.691,0
1578179345.996,34.668,28.809,30.273,80.078,63.965,0
1578179345.999,13.672,21.484,13.672,58.594,-40.039,0
1578179346.003,41.504,25.879,15.137,79.590,-54.688,0
1578179346.007,51.270,28.320,22.949,83.984,40.039,0
1578179346.011,27.344,27.344,17.090,65.918,51.758,0
1578179346.015,10.742,31.738,18.066,65.918,8.301,0
1578179346.017,21.973,33.203,17.090,67.871,-31.738,0
1578179346.021,33.203,29.297,14.160,65.918,-5.371,0
1578179346.025,38.086,25.879,17.578,54.688,63.477,0
1578179346.029,28.809,22.461,17.578,63.965,57.129,0
1578179346.033,3.418,13.184,12.207,63.965,6.836,0
1578179346.037,13.672,19.531,10.742,62.012,1.465,0
1578179346.041,38.086,29.785,11.719,62.988,38.574,0
1578179346.044,36.133,25.391,11.719,48.340,32.227,0
1578179346.048,-3.418,24.414,18.066,68.848,-24.902,0
1578179346.052,-15.137,29.785,25.391,69.336,-34.668,0
1578179346.056,4.395,24.414,35.645,54.688,24.414,0
1578179346.060,-0.488,22.461,37.598,73.242,65.918,0
1578179346.062,17.090,19.531,31.738,55.664,3.418,0
1578179346.066,28.320,12.695,31.250,45.898,-36.621,0
1578179346.070,23.438,20.020,37.598,60.059,56.152,0
1578179346.074,39.551,25.391,41.992,69.824,114.746,0
1578179346.078,19.531,16.602,41.016,59.570,61.523,0
1578179346.082,-8.789,16.602,34.180,45.898,11.719,0
1578179346.086,-0.977,21.973,25.391,62.988,45.410,0
1578179346.089,21.484,21.973,38.086,81.055,102.051,0
1578179346.093,20.996,26.367,41.504,77.637,83.008,0
1578179346.097,25.391,17.090,22.461,61.035,-3.906,0
1578179346.101,33.203,9.277,25.391,56.641,14.648,0
1578179346.105,29.785,20.020,39.551,58.105,73.730,0
1578179346.107,25.879,25.391,35.156,57.617,28.320,0
1578179346.111,18.555,29.297,25.391,78.613,-44.922,0
1578179346.115,11.719,27.832,27.344,65.430,-43.945,0
1578179346.119,8.789,17.578,34.180,47.852,24.414,0
1578179346.123,23.926,21.484,34.180,72.754,58.594,0
1578179346.127,-1.953,23.438,27.344,42.969,23.926,0
1578179346.131,-38.574,21.484,34.180,11.719,-33.203,0
1578179346.134,-40.039,15.625,54.199,25.391,-12.695,0
1578179346.138,-30.273,14.160,62.988,35.645,71.289,0
1578179346.142,-50.781,13.672,53.711,6.348,65.918,0
1578179346.146,-67.383,5.859,45.410,7.812,-25.879,0
1578179346.150,-39.551,10.254,52.246,36.133,-18.555,0
1578179346.167,-7.812,20.020,55.176,34.668,88.379,0
1578179346.171,-11.230,19.043,51.270,19.043,71.289,0
1578179346.175,-35.156,16.602,41.992,12.207,-52.246,0
1578179346.179,-31.250,21.973,42.480,18.555,-67.383,0
1578179346.183,-12.207,22.949,47.852,13.672,23.926,0
1578179346.187,-12.207,21.973,39.062,15.625,80.078,0
1578179346.191,-40.039,24.902,34.180,20.508,7.812,0
1578179346.194,-39.551,22.949,38.086,15.625,-45.898,0
1578179346.198,-3.906,19.043,40.039,21.973,32.715,0
1578179346.202,-15.625,23.438,37.109,23.926,81.055,0
1578179346.206,-41.992,17.090,33.203,36.133,38.086,0
1578179346.210,-22.949,9.277,25.879,30.273,-23.438,0
1578179346.212,-2.441,19.043,23.438,10.742,25.879,0
1578179346.216,10.742,21.484,30.273,25.879,69.824,0
1578179346.220,6.348,13.184,35.156,42.969,16.113,0
1578179346.224,-17.090,17.090,32.715,29.785,-33.203,0
1578179346.228,2.930,30.273,32.227,22.461,-34.180,0
1578179346.232,37.109,25.879,38.086,38.086,51.758,0
1578179346.236,-9.766,14.648,39.551,47.363,61.523,0
1578179346.239,-41.504,18.555,30.273,50.293,-19.043,0
1578179346.243,-4.395,25.391,21.973,32.715,-38.086,0
1578179346.247,17.578,23.926,32.227,15.137,65.430,0
1578179346.251,7.324,22.949,36.621,42.969,96.680,0
1578179346.255,-10.254,17.578,25.391,46.875,19.531,0
1578179346.257,-18.066,15.137,27.344,40.527,-10.742,0
1578179346.261,3.906,26.367,38.574,44.434,61.035,0
1578179346.265,11.719,28.320,41.016,34.668,126.953,0
1578179346.269,-7.324,17.090,26.367,45.898,58.105,0
1578179346.273,27.344,20.996,23.438,55.176,-0.488,0
1578179346.277,40.039,26.367,31.738,41.016,43.945,0
1578179346.281,4.883,16.602,37.109,38.086,105.469,0
1578179346.284,10.254,13.672,31.738,43.457,85.938,0
1578179346.288,-7.812,19.531,23.438,36.621,18.555,0
1578179346.292,-9.766,23.926,39.551,47.363,11.719,0
1578179346.296,20.508,31.738,45.898,62.012,62.012,0
1578179346.300,8.789,31.738,30.273,72.266,82.031,0
1578179346.302,-8.301,17.578,22.949,56.152,19.531,0
1578179346.306,4.883,24.414,28.809,48.828,-7.812,0
1578179346.310,20.020,34.180,36.621,65.918,63.477,0
1578179346.314,30.273,23.926,35.156,46.387,100.586,0
1578179346.318,10.742,20.996,27.832,33.691,38.574,0
1578179346.322,-10.742,24.414,29.785,42.969,18.066,0
1578179346.326,23.926,26.367,39.062,57.129,57.617,0
1578179346.329,40.527,20.508,35.156,60.059,85.449,0
1578179346.333,-3.906,17.578,27.344,36.621,26.855,0
1578179346.337,-27.832,24.902,35.645,33.691,-33.691,0
1578179346.341,-2.441,24.414,35.645,58.594,-1.953,0
1578179346.345,19.531,20.020,25.391,52.246,74.219,0
1578179346.347,12.207,18.066,19.043,44.922,76.172,0
1578179346.351,18.066,17.090,19.531,62.500,-18.066,0
1578179346.355,15.137,18.555,25.391,63.477,-26.855,1
1578179346.359,5.371,17.578,29.297,57.617,70.801,0
1578179346.363,14.160,15.625,24.414,68.359,92.285,0
1578179346.367,22.949,21.484,20.996,65.918,22.461,0
1578179346.371,30.273,27.832,22.461,59.570,-13.184,0
1578179346.374,32.715,22.461,20.020,58.105,44.434,0
1578179346.378,25.391,18.555,24.902,69.824,80.078,0
1578179346.382,10.742,21.973,26.855,77.148,4.395,0
1578179346.386,19.531,20.020,19.531,68.359,-51.758,0
1578179346.390,51.270,22.461,25.391,70.801,-7.324,0
1578179346.392,33.691,23.926,37.598,61.523,54.199,0
1578179346.396,26.367,13.184,38.574,65.430,27.344,0
1578179346.400,15.137,9.766,32.227,82.520,-10.742,0
1578179346.404,5.859,21.484,30.273,69.336,20.508,0
1578179346.408,38.086,25.879,24.414,66.406,58.594,0
1578179346.412,41.992,24.414,12.695,66.895,31.250,0
1578179346.416,18.066,27.344,3.906,51.270,-19.043,0
1578179346.419,26.855,28.809,9.277,55.664,-20.996,0
1578179346.423,40.527,26.855,24.902,76.172,15.625,0
1578179346.427,26.367,28.809,20.996,61.035,19.043,0
1578179346.431,-3.418,24.902,13.672,48.340,-34.668,0
1578179346.435,-3.418,14.648,18.555,62.012,-47.852,0
1578179346.437,17.090,23.438,22.461,58.105,27.832,0
1578179346.441,21.484,34.668,16.113,53.223,66.406,0
1578179346.445,11.719,34.180,16.602,59.082,35.156,0
1578179346.449,16.602,28.809,19.043,52.246,-28.320,0
1578179346.453,25.391,19.531,17.090,32.715,-9.277,0
1578179346.457,20.020,25.391,23.438,53.223,99.121,0
1578179346.461,8.789,28.809,13.184,49.805,54.199,0
1578179346.464,10.254,17.578,12.207,41.016,-28.320,0
1578179346.468,12.695,18.555,25.391,67.871,-20.508,0
1578179346.472,23.926,28.320,22.949,62.500,36.621,0
1578179346.476,20.508,20.996,20.508,44.434,68.359,0
1578179346.480,-8.301,12.695,19.531,52.734,33.691,0
1578179346.497,-2.930,20.508,19.043,50.781,22.461,0
1578179346.501,22.949,21.973,22.949,39.551,46.875,0
1578179346.505,20.020,23.438,27.832,38.574,58.105,0
1578179346.509,6.836,27.832,30.273,64.941,9.277,0
1578179346.513,27.832,21.973,30.273,88.867,-26.367,0
1578179346.517,36.133,15.625,23.926,65.918,24.414,0
1578179346.521,44.922,19.531,20.996,39.062,69.336,0
1578179346.524,18.066,22.461,26.367,51.758,13.184,0
1578179346.528,-8.789,20.996,29.297,72.266,-31.250,0
1578179346.532,17.578,22.461,32.227,75.195,-3.418,0
1578179346.536,25.879,20.508,41.504,71.289,72.754,0
1578179346.540,27.832,19.043,39.551,66.895,65.430,0
1578179346.542,28.809,19.043,27.344,62.500,-31.250,0
1578179346.546,21.484,25.391,27.832,63.965,-19.531,0
1578179346.550,47.852,27.832,34.668,69.336,74.219,0
1578179346.554,36.133,23.438,34.180,79.102,56.152,0
1578179346.558,4.883,20.508,23.926,77.637,-60.059,0
1578179346.562,28.320,25.879,20.020,69.336,-43.945,0
1578179346.566,39.551,29.785,30.762,74.707,34.668,0
1578179346.569,17.090,22.949,24.414,80.566,39.551,0
1578179346.573,13.184,19.531,15.137,69.336,1.953,0
1578179346.577,9.766,17.090,15.137,58.594,-42.969,0
1578179346.581,36.133,12.207,24.902,60.059,7.812,0
1578179346.585,32.227,18.066,31.250,44.434,65.918,0
1578179346.587,-8.789,21.973,20.020,50.293,-2.930,0
1578179346.591,-6.836,20.508,21.484,55.664,-56.152,0
1578179346.595,2.441,18.555,31.738,51.758,-11.719,0
1578179346.599,25.391,21.484,38.086,59.570,43.945,0
1578179346.603,16.602,26.855,33.691,60.547,38.574,0
1578179346.607,9.766,21.484,27.344,46.387,-32.715,0
1578179346.611,30.273,12.207,37.598,44.922,-30.273,0
1578179346.614,36.621,15.625,50.293,59.570,37.598,0
1578179346.618,10.742,22.949,39.551,77.637,45.898,0
1578179346.622,-5.859,24.902,31.738,78.613,-24.414,0
1578179346.626,7.324,25.391,40.039,49.805,-19.531,0
1578179346.630,14.648,25.391,40.039,34.180,43.457,0
1578179346.632,8.301,26.367,42.480,45.410,62.988,0
1578179346.636,0.977,23.926,44.434,54.688,14.160,0
1578179346.640,16.113,19.531,45.898,55.176,-43.457,0
1578179346.644,39.062,22.461,48.340,59.082,-18.066,0
1578179346.648,30.273,25.391,41.504,68.359,55.664,0
1578179346.652,11.230,26.367,34.668,66.406,44.922,0
1578179346.656,10.742,29.297,37.598,49.805,-26.855,0
1578179346.659,25.879,25.879,44.434,38.574,5.371,0
1578179346.663,12.207,20.508,39.062,61.035,78.125,0
1578179346.667,7.812,19.531,41.504,66.895,59.570,0
1578179346.671,15.137,22.461,43.945,69.824,-25.879,0
1578179346.675,24.414,31.250,41.016,55.176,-51.758,0
1578179346.677,23.926,33.203,45.410,66.406,20.508,0
1578179346.681,7.324,27.344,44.434,78.125,68.359,0
1578179346.685,11.719,25.879,37.109,52.246,8.789,0
1578179346.689,23.926,24.414,37.109,53.711,-46.387,0
1578179346.693,39.062,20.996,39.551,71.777,32.227,0
1578179346.697,47.852,25.879,38.574,64.941,100.586,0
1578179346.701,13.184,18.555,35.156,41.504,78.613,0
1578179346.704,-9.766,15.137,19.043,54.199,-20.996,0
1578179346.708,8.789,26.367,17.578,51.270,-18.066,0
1578179346.712,16.113,27.344,35.156,57.129,74.219,0
1578179346.716,13.184,34.668,26.367,62.500,34.180,0
1578179346.720,11.719,34.668,18.555,43.457,-30.273,0
1578179346.722,31.250,24.414,25.391,51.270,10.742,0
1578179346.726,43.457,25.879,29.297,60.547,71.777,0
1578179346.730,37.598,28.320,25.879,59.082,66.406,0
1578179346.734,11.230,23.438,22.461,57.617,-0.488,0
1578179346.738,14.160,21.973,23.926,58.594,-37.109,0
1578179346.742,41.504,21.484,28.320,50.293,38.574,0
1578179346.746,23.926,25.391,33.691,37.109,72.754,0
1578179346.749,2.930,25.391,26.855,31.738,10.254,0
1578179346.753,21.484,22.461,33.203,42.969,2.930,0
1578179346.757,42.480,31.738,41.504,73.242,31.250,0
1578179346.761,48.828,35.645,26.855,70.312,56.641,0
1578179346.765,48.340,27.832,20.508,82.031,13.672,0
1578179346.767,5.859,14.648,29.785,80.566,-31.250,0
1578179346.771,3.418,20.996,36.621,50.781,1.465,0
1578179346.775,30.762,28.320,36.133,62.500,48.340,0
1578179346.779,33.203,22.461,29.785,65.430,39.062,0
1578179346.783,11.719,22.461,22.949,67.871,-22.949,0
1578179346.787,43.945,21.973,23.438,77.148,-45.410,0
1578179346.791,57.617,21.973,25.879,62.988,54.688,0
1578179346.794,17.090,27.832,19.043,52.246,79.102,0
1578179346.798,8.301,32.715,17.090,42.969,-7.812,0
1578179346.802,24.902,23.438,25.391,62.012,-29.297,0
1578179346.806,35.156,16.113,31.738,87.891,50.781,0
1578179346.810,4.883,17.578,27.832,81.543,75.684,0
1578179346.812,-6.348,18.555,22.461,62.500,32.227,0
1578179346.816,17.090,15.625,22.461,57.617,1.465,0
1578179346.820,30.273,21.484,24.414,76.172,27.832,0
1578179346.824,33.203,22.461,29.297,65.430,104.492,0
1578179346.828,23.926,13.672,26.367,67.871,48.828,0
1578179346.832,9.766,17.090,19.043,76.660,-3.906,0
1578179346.836,8.789,18.066,21.973,47.363,70.801,0
1578179346.839,13.184,15.625,29.297,45.410,114.746,0
1578179346.843,9.766,13.184,27.832,57.617,90.820,0
1578179346.847,-7.324,13.672,19.043,62.988,23.926,0
1578179346.851,-4.883,23.926,23.438,62.988,-0.977,0
1578179346.855,18.555,18.555,35.645,58.594,65.430,0
1578179346.872,31.250,10.254,34.180,75.684,79.590,0
1578179346.876,22.461,18.066,23.438,78.613,6.348,0
1578179346.880,2.930,19.043,21.973,61.523,-26.367,0
1578179346.884,12.207,6.836,31.250,85.449,42.480,0
1578179346.888,14.160,6.836,23.926,63.477,77.637,0
1578179346.892,8.301,14.648,7.324,35.156,8.301,0
1578179346.896,14.160,16.113,8.789,41.992,-45.410,0
1578179346.899,15.625,21.973,20.020,56.641,-34.668,0
1578179346.903,32.715,27.344,21.484,63.965,21.973,0
1578179346.907,26.855,20.020,18.066,50.781,3.418,0
1578179346.911,12.207,19.043,11.230,77.148,-73.730,0
1578179346.915,25.391,22.949,14.648,79.102,-45.898,0
1578179346.917,23.926,19.043,23.438,55.664,62.500,0
1578179346.921,2.441,19.043,15.625,56.152,54.688,0
1578179346.925,-6.348,18.555,9.277,50.293,-2.930,0
1578179346.929,4.395,15.137,15.625,56.641,-18.555,0
1578179346.933,7.324,15.137,14.648,38.574,28.809,0
